# BNX File Version:	1.2
# Label Channels:	1
# Nickase Recognition Site 1:	GCTCTTC
# Bases per Pixel:	494
# Software Version:	omsim-v1.0
#rh	SourceFolder	InstrumentSerial	Time	NanoChannelPixelsPerScan	StretchFactor	BasesPerPixel	NumberofScans	ChipId	FlowCell	LabelSNRFilterType	MinMoleculeLength	MinLabelSNR	RunId
# Run Data	/home/biridir/PycharmProjects/optidiff/Detect Molecules	omsim-v1.0	06/09/20 04:25 PM	2022206	0.859417154047	494.521197301	1	20249,11843,07/17/2014,840014289	1	Static	20	0.0	1	
# Number of Molecules:	5576
#0h	LabelChannel	MoleculeID	Length	AvgIntensity	SNR	NumberofLabels	OriginalMoleculeId	ScanNumber	ScanDirection	ChipId	Flowcell	RunId	GlobalScanNumber
#0f	int	int	float	float	float	int	int	int	int	string	int	int	int
#1h	LabelChannel	LabelPositions[N]
#1f	int	float
#Qh	QualityScoreID	QualityScores[N]
#Qf	string	float[N]
# Quality Score QX11: Label SNR for channel 1
# Quality Score QX12: Label Intensity for channel 1
0	1	531962.59	0.88	27.26	61	1	1	-1	20249,11843,07/17/2014,840014289	1	1	1
1	4093.39	7738.24	13590.33	20010.82	22441.79	26324.45	31121.53	43480.69	54557.22	62965.72	68805.78	79861.85	102208.61	107434.47	124861.91	133784.80	147547.13	151764.80	160182.26	162393.84	167688.24	185024.61	186810.60	188520.37	196371.55	205504.78	215655.82	221835.74	260410.71	272360.70	286468.02	294357.54	301231.59	314804.48	318039.37	326319.34	329537.18	334877.18	339870.81	345533.06	350286.59	356767.50	363233.43	374914.55	387701.89	389641.93	396229.23	415320.07	419270.79	422271.37	435821.93	440912.28	446693.91	450706.25	452472.22	455830.11	477275.30	485277.93	510901.38	526404.89	529201.98	531962.59
QX11	35.6901	4.6311	10.4837	11.0812	10.7769	15.9776	18.2819	19.4365	10.4573	7.5744	13.7936	11.6903	9.6787	16.9429	11.3261	10.3755	12.3793	21.7306	4.3368	7.1061	15.0137	8.2677	9.6588	12.8024	18.6147	30.0393	12.6980	68.9920	6.5806	9.3750	44.6265	7.5624	52.7698	23.6634	10.0108	12.0422	7.0424	30.5717	27.5183	22.7224	7.2538	10.6846	15.3468	12.0221	22.0999	4.6607	23.1843	11.4487	81.4111	7.5055	12.7576	17.5025	6.0224	6.5394	13.4428	22.1314	18.5710	18.6808	32.4469	7.9853	22.0691
QX12	0.0956	0.0692	0.1068	0.0477	0.0608	0.0797	0.0893	0.1445	0.0216	0.0456	0.0880	0.1447	0.0575	0.0908	0.0617	0.1268	0.0989	0.0851	0.1225	0.0132	0.0779	0.0694	0.1254	0.1027	0.1212	0.0905	0.0617	0.0839	0.0918	0.0741	0.1081	0.1342	0.1221	0.0978	0.0957	0.0792	0.0874	0.0808	0.0287	0.0418	0.0252	0.0524	0.0288	0.0917	0.0339	0.1004	0.0745	0.0212	0.1498	0.1412	0.1055	0.0818	0.0985	0.1565	0.0597	0.0337	0.1137	0.0653	0.0411	0.0915	0.1040
0	2	222517.84	0.03	8.62	27	2	1	-1	20249,11843,07/17/2014,840014289	1	1	1
1	5942.98	10201.90	19973.40	26384.07	30262.84	32915.23	38826.62	42104.07	56618.21	59542.04	62838.00	85014.48	97241.61	99988.15	105030.96	114480.41	118173.21	124205.60	126544.56	138881.81	145952.01	153028.12	154775.59	161868.14	166804.71	185349.79	219206.60	222517.84
QX11	12.1187	6.0487	6.4730	14.7704	23.3275	64.6549	22.6819	16.9065	30.2408	5.1662	9.8256	5.2585	8.6916	11.2060	8.2177	12.3771	8.0943	19.1988	8.0920	10.6041	14.8080	5.8111	45.7119	20.2327	8.9970	9.5474	21.1309
QX12	0.1008	0.0197	0.0473	0.0913	0.0995	0.0807	0.0397	0.0778	0.0775	0.0783	0.0844	0.0886	0.1208	0.0535	0.0965	0.1788	0.0377	0.1147	0.0458	0.0713	0.1695	0.0507	0.0230	0.0882	0.1167	0.0552	0.0815
0	3	148218.59	0.40	14.32	20	3	1	-1	20249,11843,07/17/2014,840014289	1	1	1
1	2843.49	9158.38	13677.07	15837.83	21661.93	25286.78	35134.78	39403.39	61466.68	82544.58	87808.23	97035.60	100562.49	102877.10	106700.42	109065.39	122096.54	128177.58	135236.07	144096.35	148218.59
QX11	15.0465	8.1899	16.4502	11.3150	13.6623	7.4780	21.1490	23.0426	18.5769	17.5839	12.8739	14.6191	12.2662	5.3515	7.2377	13.1289	7.0093	8.1895	22.3999	10.7841
QX12	0.0573	0.0900	0.1027	0.0462	0.0449	0.1176	0.0493	0.1124	0.0538	0.0481	0.0836	0.0924	0.1098	0.0726	0.0388	0.0239	0.0536	0.1030	0.1345	0.0862
0	4	223613.67	0.30	46.55	25	4	1	-1	20249,11843,07/17/2014,840014289	1	1	1
1	7209.26	8875.38	12859.75	17006.05	20497.95	22755.12	37225.40	53483.65	63114.01	67322.77	73982.36	76169.51	80133.67	99653.01	104151.38	107841.80	116773.07	122201.69	124087.03	129440.39	161773.99	194020.73	198810.23	202648.70	220201.07	223613.67
QX11	9.2184	6.0785	4.8421	11.6574	16.8784	11.7197	12.4303	14.1654	7.4079	14.9552	12.2892	11.6787	34.2472	8.5584	22.4481	12.2604	25.3848	12.0642	4.7600	13.4985	10.8144	8.3772	5.5813	5.6289	17.1565
QX12	0.0705	0.0784	0.1374	0.0616	0.0712	0.0656	0.1182	0.1403	0.0204	0.0230	0.0743	0.0603	0.0062	0.0170	0.0246	0.0840	0.0258	0.1058	0.0151	0.0972	0.0841	0.0642	0.0863	0.1431	0.1663
0	5	231160.16	0.29	4.63	21	5	1	-1	20249,11843,07/17/2014,840014289	1	1	1
1	6790.61	15144.31	23051.46	32529.31	43198.84	47374.24	62998.62	67461.63	76506.22	86446.97	114986.79	126594.83	130789.30	136251.80	150585.17	156132.62	159071.48	198010.93	201011.82	211573.20	217935.79	231160.16
QX11	45.8833	7.6618	17.3319	30.3951	12.5634	12.2571	10.4886	6.0568	8.2988	9.8766	7.7949	7.6666	9.8350	17.1012	37.7824	8.1473	9.7517	83.0395	11.8784	6.6392	6.2026
QX12	0.0777	0.0537	0.0684	0.0640	0.1068	0.0900	0.0882	0.0591	0.0135	0.0911	0.1195	0.1139	0.0890	0.0850	0.1024	0.1120	0.0745	0.1367	0.0625	0.0608	0.0613
0	6	211800.54	0.33	10.05	18	6	1	-1	20249,11843,07/17/2014,840014289	1	1	1
1	34494.24	41462.82	43282.67	45088.11	58194.12	63535.65	72242.04	79792.09	84831.25	88844.10	100026.55	103524.02	106613.90	135731.03	153691.14	159851.82	168165.21	184393.75	211800.54
QX11	13.5798	13.9801	13.4917	23.7464	7.6861	7.2750	11.8129	8.3642	17.4997	33.2797	4.9963	8.2922	40.8733	4.2530	8.0214	12.2506	18.5380	8.6211
QX12	0.1246	0.0381	0.0689	0.0416	0.0251	0.1128	0.0513	0.0740	0.0268	0.0330	0.0217	0.0477	0.0617	0.0702	0.1004	0.1148	0.0558	0.1078
0	7	135907.83	0.14	8.02	15	7	1	-1	20249,11843,07/17/2014,840014289	1	1	1
1	9061.41	10772.81	12872.15	19663.72	27668.01	40967.11	44536.00	47017.77	53154.67	69035.58	78833.83	85962.31	109794.15	119172.51	134940.24	135907.83
QX11	7.7881	9.9223	15.3407	15.9114	7.9332	10.7973	7.3435	17.1420	9.0323	7.9249	12.7710	57.9974	19.0091	23.8170	34.3655
QX12	0.1030	0.1195	0.0003	0.0332	0.0936	0.1811	0.1179	0.0519	0.1369	0.1204	0.0644	0.0710	0.0135	0.1304	0.0279
0	8	182062.84	0.39	16.08	19	8	1	-1	20249,11843,07/17/2014,840014289	1	1	1
1	1385.78	12891.81	18113.48	20467.84	23900.29	35391.53	57221.46	68488.83	89632.73	91052.97	98298.60	105678.33	116348.24	120528.23	124238.62	128296.67	154243.16	166543.55	168362.02	182062.84
QX11	6.5551	6.1467	7.8834	9.7961	15.7779	10.5988	13.6978	16.0023	11.0371	10.3640	12.2287	4.3317	8.2793	17.0160	14.2699	11.4397	35.0808	29.9651	5.3665
QX12	0.0062	0.0960	0.0170	0.1123	0.1269	0.1087	0.1769	0.0293	0.1319	0.0631	0.0250	0.0911	0.0207	0.1082	0.0970	0.0517	0.0653	0.0864	0.0886
0	9	218603.08	0.15	19.16	17	9	1	-1	20249,11843,07/17/2014,840014289	1	1	1
1	14386.29	17109.19	34058.53	48479.78	54604.44	74294.14	75969.61	88012.23	118827.62	122446.91	137423.55	152648.51	157791.00	186420.75	193946.81	208369.97	218400.83	218603.08
QX11	12.1445	42.5188	15.1098	19.1024	9.3376	12.0778	5.7642	5.5787	14.6699	23.4108	11.9514	13.7245	4.2391	4.8062	19.2263	9.9222	14.0803
QX12	0.0686	0.0078	0.0892	0.0661	0.0442	0.1118	0.0388	0.0722	0.0589	0.0144	0.1025	0.0873	0.0287	0.0517	0.0366	0.0540	0.0764
0	10	115344.94	0.27	734.13	13	10	1	-1	20249,11843,07/17/2014,840014289	1	1	1
1	14379.18	16700.75	26350.40	29193.24	43158.54	46147.71	50768.66	52198.42	70427.14	75066.05	97504.75	108418.97	114624.64	115344.94
QX11	9.3277	14.4040	9.9542	15.6696	8.6017	7.5628	10.8181	7.1487	14.1054	6.8271	7.6511	15.7980	4.1070
QX12	0.0800	0.0667	0.1133	0.0473	0.0350	0.0313	0.0570	0.0320	0.1123	0.0852	0.0160	0.0542	0.1233
0	11	105772.24	0.56	38.77	10	11	1	-1	20249,11843,07/17/2014,840014289	1	1	1
1	10950.73	18504.29	28731.74	35222.48	51659.06	67930.53	73956.98	80185.83	90578.36	96982.25	105772.24
QX11	5.4436	10.5608	9.1208	12.6115	10.9334	9.5655	6.5182	21.7967	7.1122	25.8813
QX12	0.0720	0.1274	0.0654	0.1032	0.1021	0.0498	0.0418	0.0179	0.0668	0.0267
0	12	44915.69	0.49	19.05	7	12	1	-1	20249,11843,07/17/2014,840014289	1	1	1
1	7674.38	9315.05	12345.58	27186.82	31858.31	34949.56	44252.72	44915.69
QX11	16.5929	19.1536	12.4210	8.8043	6.1349	6.9188	17.6413
QX12	0.0977	0.0810	0.1118	0.0592	0.0236	0.0590	0.0724
0	13	289006.74	0.53	70.39	34	13	1	-1	20249,11843,07/17/2014,840014289	1	1	1
1	2197.98	6204.77	8678.86	12617.10	20491.07	31820.36	40034.48	54441.52	56051.15	61336.33	93354.71	117759.60	125179.63	130090.09	134308.52	142426.56	152024.42	156697.13	173049.82	175309.48	180270.76	192579.74	196520.53	200272.74	217002.94	220938.26	224357.71	232541.79	234346.24	251484.74	275262.64	277748.61	279206.70	280648.25	289006.74
QX11	15.1327	15.0059	9.7323	7.4443	33.3871	19.3713	37.7415	5.3374	5.7353	19.2163	10.8632	12.3437	5.4967	5.4437	22.4374	16.2032	16.2370	10.1768	14.7927	22.5705	15.0439	11.0077	9.7249	6.1282	15.9660	10.9727	6.2019	29.2326	6.1602	7.8453	13.8838	10.9051	15.3545	11.5379
QX12	0.1209	0.1416	0.0773	0.0343	0.0506	0.1100	0.0844	0.1373	0.0190	0.1021	0.0633	0.0499	0.1032	0.1039	0.1325	0.0540	0.0496	0.0827	0.0965	0.1046	0.0409	0.0182	0.0673	0.0614	0.0595	0.0100	0.0499	0.0585	0.0723	0.0503	0.0014	0.0432	0.0976	0.0682
0	14	101595.98	0.12	14.60	11	14	1	-1	20249,11843,07/17/2014,840014289	1	1	1
1	21873.73	28534.07	37487.82	39576.73	43465.87	45153.91	61974.40	64786.37	69349.06	84121.96	92894.49	101595.98
QX11	20.0674	11.5492	9.5342	9.6451	11.5545	8.1342	6.6955	6.2655	35.2485	14.6729	7.3419
QX12	0.0835	0.0710	0.0840	0.0712	0.0596	0.0447	0.1515	0.0252	0.0448	0.0964	0.1155
0	15	49459.17	0.29	3.15	5	15	1	-1	20249,11843,07/17/2014,840014289	1	1	1
1	4793.02	6468.38	15855.75	21219.32	25942.79	49459.17
QX11	14.5659	7.4108	18.2665	12.8442	10.1915
QX12	0.1532	0.0305	0.0722	0.0445	0.0744
0	16	90024.84	0.47	10.44	10	16	1	-1	20249,11843,07/17/2014,840014289	1	1	1
1	21049.82	23401.34	27720.86	29880.61	35357.43	37005.40	55303.55	59200.13	64820.47	89893.35	90024.84
QX11	15.4103	10.8544	18.2930	5.7184	10.2027	6.4608	7.3329	6.3343	15.4697	21.0928
QX12	0.0896	0.0252	0.0645	0.0484	0.0071	0.0921	0.0465	0.1037	0.1191	0.1547
0	17	117765.54	0.64	10.23	12	17	1	-1	20249,11843,07/17/2014,840014289	1	1	1
1	1293.67	7224.40	10905.16	17480.29	19527.72	23424.69	47298.30	72371.94	75507.60	88228.73	91673.00	110043.51	117765.54
QX11	11.4354	4.8259	22.6445	15.2791	7.2114	29.9700	15.6367	36.5286	6.8193	10.4201	41.2835	17.2623
QX12	0.0839	0.0325	0.1167	0.0483	0.0682	0.0368	0.0633	0.0491	0.1141	0.0773	0.0844	0.1245
0	18	26248.07	0.28	52.31	5	18	1	-1	20249,11843,07/17/2014,840014289	1	1	1
1	371.07	5809.35	14063.79	17007.19	24538.11	26248.07
QX11	5.8662	17.4287	52.0757	10.1492	19.8219
QX12	0.1463	0.0924	0.0768	0.0602	0.0794
0	19	31193.66	0.51	12.85	3	19	1	-1	20249,11843,07/17/2014,840014289	1	1	1
1	5552.20	11979.49	30372.96	31193.66
QX11	4.1446	10.3595	7.5978
QX12	0.0751	0.0997	0.1012
0	20	223852.27	0.41	36.09	23	20	1	-1	20249,11843,07/17/2014,840014289	1	1	1
1	567.89	11526.18	31057.91	32649.23	39517.46	61304.31	69966.10	71524.75	91603.24	130258.09	135787.52	144129.62	150134.58	163948.94	165113.85	170426.10	176870.90	196995.76	199747.75	202393.55	205768.76	218399.27	220297.77	223852.27
QX11	6.9411	6.0862	7.2281	14.1492	6.5868	17.3478	26.1608	11.1536	17.3632	17.1475	48.6478	15.2879	7.1623	6.7376	12.0719	24.9492	5.1997	13.3244	5.2881	23.2913	12.3927	13.5299	15.0298
QX12	0.0428	0.0375	0.0687	0.0893	0.1095	0.0211	0.0390	0.1457	0.0778	0.0823	0.1430	0.0166	0.0216	0.0948	0.1376	0.0673	0.1040	0.1085	0.1052	0.0626	0.0234	0.1093	0.0236
0	21	87234.40	0.38	11.66	10	21	1	-1	20249,11843,07/17/2014,840014289	1	1	1
1	3482.80	9247.89	14261.86	17992.16	32496.05	38673.36	49226.21	77171.70	82057.84	83799.23	87234.40
QX11	6.2228	8.3522	15.4455	17.1317	9.0808	8.9776	6.3690	12.6847	11.5871	20.3814
QX12	0.0622	0.0516	0.0733	0.0556	0.0864	0.0687	0.1421	0.0732	0.0219	0.1312
0	22	50923.72	0.47	14.70	3	22	1	-1	20249,11843,07/17/2014,840014289	1	1	1
1	26448.06	29167.18	35534.32	50923.72
QX11	19.1065	4.4624	53.0970
QX12	0.0244	0.0079	0.2034
0	23	318731.91	0.53	6.13	37	23	1	-1	20249,11843,07/17/2014,840014289	1	1	1
1	1029.27	9100.66	19409.13	22990.60	24575.99	45756.38	49317.27	61926.64	64581.47	67585.41	72145.75	76574.69	78782.97	82468.92	84444.86	87450.37	90595.45	104992.15	134861.13	167148.58	168845.49	175066.28	180744.78	185396.00	200567.40	202984.03	204803.87	240034.77	244496.95	254473.66	260919.42	263984.17	273380.22	276928.53	291206.92	294644.66	313520.07	318731.91
QX11	3.9186	19.6360	19.2541	11.6136	33.8543	16.7637	7.9442	6.7878	5.4211	11.0448	24.2266	21.7903	36.8131	14.8893	9.8484	26.6745	19.8807	7.0663	51.5978	6.2463	9.6828	9.1097	15.7475	15.1751	8.9907	9.9317	10.0383	4.6050	16.5819	26.2862	16.2592	11.2758	20.3836	34.7722	7.3125	7.1666	19.8020
QX12	0.0485	0.0864	0.0589	0.0085	0.0662	0.0194	0.0552	0.0576	0.0327	0.0494	0.0586	0.0664	0.0935	0.0628	0.0584	0.1531	0.0453	0.0653	0.0840	0.1911	0.0331	0.0294	0.0766	0.0852	0.0267	0.0630	0.1522	0.0111	0.0295	0.0391	0.0229	0.1321	0.0943	0.0502	0.0892	0.0366	0.0488
0	24	380463.72	0.35	3.10	48	24	1	-1	20249,11843,07/17/2014,840014289	1	1	1
1	3245.04	11371.46	21570.89	26903.34	48296.14	52410.57	70217.08	74164.90	81047.55	83352.18	86526.14	89595.75	93342.61	107180.12	112662.37	115530.28	136782.39	153794.62	169184.49	170921.45	177073.93	179670.97	182726.43	187514.58	202493.01	204984.03	206708.61	213189.49	224132.84	246404.37	256258.29	262860.53	266158.08	269374.87	275250.69	278591.23	295963.75	315414.91	321546.45	333881.20	336583.56	342237.80	351251.93	354942.82	357262.88	360923.78	363366.22	375839.62	380463.72
QX11	22.0177	10.2765	8.8271	21.9178	26.8696	11.7985	11.4832	7.3456	12.2746	15.7242	9.4385	15.7207	19.9268	8.6179	9.6380	6.7760	8.3831	9.5241	8.0215	39.7709	9.7334	8.5994	19.8234	12.0869	6.1800	9.4567	10.5996	23.3069	12.5525	19.8687	15.4053	9.0949	33.4606	32.6986	6.0933	11.5228	12.5009	9.8606	10.1279	8.1007	9.9840	8.1467	11.9825	11.1215	15.2874	14.3312	14.6877	10.9261
QX12	0.0570	0.0606	0.0983	0.0831	0.0858	0.0371	0.0664	0.0748	0.0648	0.1307	0.0195	0.0665	0.0457	0.0984	0.0400	0.0167	0.1261	0.0749	0.0023	0.0018	0.1028	0.1356	0.0799	0.0949	0.0617	0.0399	0.0539	0.0617	0.0741	0.0914	0.0312	0.0923	0.0275	0.1316	0.0575	0.0602	0.1037	0.0686	0.0842	0.0535	0.0554	0.0488	0.1171	0.1490	0.0872	0.1056	0.0416	0.0862
0	25	139611.01	0.52	6.08	11	25	1	-1	20249,11843,07/17/2014,840014289	1	1	1
1	6252.80	18756.50	50014.11	71880.50	75433.12	85711.27	87713.34	97878.54	104941.32	131566.99	139023.13	139611.01
QX11	7.2874	6.7542	5.0062	7.1334	8.7145	13.7486	18.2805	12.0438	15.0445	48.6895	22.8517
QX12	0.0077	0.0967	0.0184	0.0512	0.0485	0.0229	0.0603	0.0382	0.1803	0.0351	0.0426
0	26	214426.71	0.30	7.47	27	26	1	-1	20249,11843,07/17/2014,840014289	1	1	1
1	7506.97	19744.32	29314.38	36731.27	42164.30	55212.89	57995.75	72686.58	88483.77	94703.92	118002.86	128997.45	134250.99	141019.20	144787.21	149816.35	152158.51	156682.88	159067.21	170941.66	176156.03	182592.54	187676.77	189459.57	194484.87	205304.44	208848.20	214426.71
QX11	15.8109	11.5386	13.0154	7.2992	25.0188	20.7843	11.7069	7.0137	7.1561	11.2326	23.1911	13.1487	12.3529	7.0350	14.7245	10.6350	9.5528	56.1708	15.8905	10.6995	13.9281	6.2500	9.4148	12.3740	5.1989	18.4501	7.0218
QX12	0.0224	0.1013	0.0890	0.1010	0.1327	0.1302	0.0783	0.0593	0.0849	0.0395	0.0739	0.0531	0.0495	0.0614	0.0577	0.0435	0.0948	0.1327	0.1281	0.0913	0.0934	0.0843	0.0770	0.1417	0.0654	0.0416	0.0479
0	27	276145.04	0.47	7.51	32	27	1	-1	20249,11843,07/17/2014,840014289	1	1	1
1	409.40	6209.83	17164.03	30526.85	36429.39	43272.59	46212.53	50274.44	65422.11	72306.26	75437.14	83764.28	95717.55	110128.19	113389.51	118676.92	135742.51	138601.17	143157.37	157921.44	166591.45	178749.70	183057.39	198810.87	200612.40	203292.98	207237.99	211620.90	216674.49	236923.64	253103.85	265849.77	276145.04
QX11	13.4372	6.0553	12.3350	7.5280	8.0954	9.4887	13.5691	14.2534	8.0122	13.0783	8.0749	14.7546	8.6257	18.1597	7.8480	8.4478	10.1024	29.6927	19.6532	11.8196	11.5281	15.8074	9.1025	5.7063	34.8298	26.1505	14.7516	15.4053	21.1511	8.6692	9.8451	24.3947
QX12	0.0649	0.0233	0.0824	0.0438	0.0670	0.0483	0.0994	0.0566	0.1332	0.0740	0.0679	0.0097	0.1463	0.0707	0.0342	0.1037	0.0280	0.1217	0.0015	0.0954	0.0341	0.1381	0.0266	0.1090	0.0187	0.0575	0.0430	0.0816	0.1607	0.1111	0.0214	0.1198
0	28	44038.62	0.35	8.12	6	28	1	-1	20249,11843,07/17/2014,840014289	1	1	1
1	7504.94	19061.59	20816.23	27757.57	32392.33	40407.69	44038.62
QX11	19.0440	10.6342	6.4694	9.9440	7.0216	22.5509
QX12	0.0363	0.0736	0.0686	0.0615	0.0437	0.1417
0	29	331438.84	0.57	4.20	48	29	1	-1	20249,11843,07/17/2014,840014289	1	1	1
1	17237.37	23977.06	28102.59	31999.70	35141.43	37634.49	44361.02	48234.78	55599.14	63082.56	65159.56	74387.39	79421.72	88277.70	95502.77	102272.51	107478.09	111179.95	130002.04	134615.47	151637.45	155077.93	161499.57	166968.51	170843.12	175022.22	179916.38	181489.98	184935.68	189599.79	195184.38	210330.32	218248.54	222732.82	234796.88	239864.69	244077.36	248120.20	266119.54	278142.17	279776.37	292032.05	294547.43	299426.59	309265.17	310971.26	316098.19	317748.27	331438.84
QX11	7.1242	14.6248	7.9798	12.9275	8.6435	13.1984	10.6150	16.0461	3.8745	28.9252	8.5480	7.5600	15.4455	13.5524	9.0737	5.1638	12.8432	32.5257	8.0234	9.7883	8.1599	4.1994	6.2837	5.6542	11.5201	8.9918	8.0872	12.5295	24.7496	9.5859	14.3491	9.4615	22.7248	6.9273	17.9071	13.6206	27.2296	18.2376	51.1576	3.1158	4.2067	7.5541	5.2623	4.1218	5.6593	5.5119	7.8510	18.3025
QX12	0.0498	0.0813	0.0338	0.0833	0.0319	0.0981	0.0029	0.0561	0.1084	0.0875	0.1191	0.0808	0.0081	0.0632	0.0503	0.1150	0.0574	0.0803	0.0706	0.1419	0.0546	0.0880	0.0446	0.0511	0.0862	0.0924	0.0703	0.0311	0.0381	0.0852	0.0846	0.0772	0.0414	0.1435	0.0650	0.0198	0.0771	0.1062	0.0840	0.1115	0.0555	0.0824	0.0772	0.0682	0.0694	0.0829	0.0625	0.1313
0	30	24005.26	0.44	126.14	1	30	1	-1	20249,11843,07/17/2014,840014289	1	1	1
1	19159.11	24005.26
QX11	5.9996
QX12	0.0688
0	31	319571.47	0.31	11.76	41	31	1	-1	20249,11843,07/17/2014,840014289	1	1	1
1	2099.73	4447.18	11328.46	20426.37	26817.94	45241.99	48625.03	50712.26	59091.85	62152.95	70826.95	72706.69	75140.73	80256.58	91869.03	96073.80	97929.37	114828.88	128942.24	139933.27	144358.27	146687.30	152454.77	176986.70	179242.78	183440.65	189952.64	196944.32	212272.09	242851.18	249160.62	257242.46	258721.11	260648.64	263992.56	266322.66	283369.95	286048.81	303795.98	305726.29	314595.13	319571.47
QX11	11.4274	10.3098	14.1895	4.9515	4.4897	31.7672	13.2255	12.8665	6.2204	12.4098	11.2424	9.0293	6.7319	11.0342	7.0817	6.1924	6.0480	7.1034	23.8417	4.6727	6.3861	11.0536	9.9956	16.3635	9.7986	13.6523	26.7084	13.1391	16.5635	13.1166	11.4968	46.9730	5.9313	20.7052	5.8820	9.7014	16.7582	10.8564	5.5025	20.6965	9.9715
QX12	0.0042	0.1044	0.1554	0.0320	0.0435	0.0470	0.0472	0.1653	0.1078	0.0836	0.0727	0.1202	0.1238	0.0529	0.0490	0.0700	0.0290	0.0301	0.1277	0.0516	0.1518	0.0510	0.0445	0.1822	0.0019	0.0554	0.1151	0.1078	0.0491	0.0719	0.1324	0.0680	0.0881	0.0727	0.0093	0.0465	0.0958	0.0235	0.1613	0.0490	0.0800
0	32	260697.23	0.41	7.97	27	32	1	-1	20249,11843,07/17/2014,840014289	1	1	1
1	19278.25	39818.60	47058.08	59151.46	62498.03	77906.93	81613.27	85026.52	89071.41	103645.57	106357.12	119660.38	121644.23	129134.91	132557.56	134103.62	148548.54	154374.52	167147.39	181893.53	194138.88	199016.31	202074.16	213564.35	227731.52	253521.76	259091.30	260697.23
QX11	11.1021	4.5381	9.8147	5.0580	15.1749	14.4746	34.8757	14.9238	13.5064	7.6121	8.7418	9.2638	6.8163	9.2738	19.4602	6.2034	42.8903	5.5630	6.8546	11.5325	6.5570	9.0009	11.8625	25.0200	40.0503	7.3054	11.9286
QX12	0.0240	0.0225	0.0350	0.0885	0.0960	0.0079	0.1420	0.0708	0.1344	0.0958	0.1908	0.1102	0.0845	0.0590	0.0922	0.0196	0.0085	0.0611	0.0929	0.0497	0.1094	0.0366	0.0368	0.0576	0.1687	0.0365	0.0818
0	33	183222.34	0.50	6.79	23	33	1	-1	20249,11843,07/17/2014,840014289	1	1	1
1	24342.31	26305.56	51616.07	59266.33	63941.64	69612.75	74610.49	84944.28	94206.98	102331.99	120833.81	124342.47	129567.17	132078.48	141628.77	144188.21	147158.06	157389.77	166454.87	171377.30	176111.59	177961.45	183006.56	183222.34
QX11	8.1391	6.9415	6.8866	7.7389	19.4134	13.9034	11.4055	10.9510	12.8583	21.4897	15.3687	33.5985	43.9927	13.3671	14.0211	13.8979	23.9307	8.6942	8.3010	8.4683	10.7218	13.7066	21.0332
QX12	0.1165	0.1211	0.0193	0.0622	0.1251	0.0438	0.0411	0.1147	0.0274	0.1318	0.0538	0.0313	0.0606	0.0636	0.0505	0.0395	0.0591	0.0594	0.0060	0.0803	0.1188	0.1265	0.1102
0	34	54670.68	0.22	7.46	8	34	1	-1	20249,11843,07/17/2014,840014289	1	1	1
1	4708.08	7972.03	26649.60	28300.61	30613.38	38037.87	40251.04	51024.95	54670.68
QX11	8.3889	4.4343	10.0563	4.2235	9.7634	13.5572	12.6164	11.4429
QX12	0.0554	0.1167	0.1212	0.0599	0.0735	0.0665	0.1093	0.0957
0	35	583139.91	0.42	7.79	60	35	1	-1	20249,11843,07/17/2014,840014289	1	1	1
1	32784.30	47284.69	53610.42	59357.46	61331.41	92139.45	101261.35	105577.15	109080.27	114879.76	122431.35	131603.44	134523.14	157659.85	167909.73	171744.19	179767.20	194598.60	218300.31	245235.55	250100.86	253590.53	267883.20	289806.77	296324.70	300260.42	308168.61	315714.98	318096.38	322030.57	333181.40	339377.94	345089.08	353791.90	367405.92	374098.05	384943.17	412433.75	417237.50	422595.12	432431.13	436121.30	437843.15	444140.97	455704.50	458079.78	459802.11	487525.49	493034.37	495784.96	505011.41	513612.75	516316.22	531357.82	538447.46	540044.45	548406.55	555113.76	559244.37	572434.54	583139.91
QX11	5.2951	5.5134	34.5528	7.6313	8.4730	23.7960	14.8817	8.5505	34.9145	7.6251	5.1067	15.9580	11.8603	6.8334	10.8212	7.9052	20.5796	14.0292	8.3524	20.4016	23.7723	25.5505	27.2433	6.3490	12.8496	21.4394	7.9105	8.6112	8.5915	12.9440	5.9878	9.8385	21.4938	9.6355	7.9069	17.3423	26.2890	7.1236	19.3513	25.4681	16.9041	7.2689	15.3861	6.4335	3.2793	22.9718	10.5504	19.4433	3.9840	30.3350	19.2875	6.2219	10.5483	8.6570	4.9907	17.0727	10.1032	12.9611	4.8191	19.5264
QX12	0.0483	0.1407	0.0701	0.0283	0.0913	0.0525	0.1076	0.0563	0.0684	0.0018	0.0762	0.0755	0.1342	0.0817	0.0222	0.0223	0.1071	0.0663	0.0819	0.0109	0.0882	0.0208	0.0949	0.1185	0.0604	0.0963	0.0471	0.0298	0.0802	0.0241	0.1382	0.0862	0.0626	0.0427	0.0180	0.1060	0.0188	0.1266	0.0590	0.0778	0.0442	0.0456	0.0979	0.1311	0.0577	0.0350	0.1080	0.0491	0.0563	0.0432	0.0374	0.0353	0.0405	0.0056	0.0351	0.1153	0.0208	0.1427	0.0670	0.1191
0	36	87342.43	0.52	5.47	8	36	1	-1	20249,11843,07/17/2014,840014289	1	1	1
1	10727.59	20803.01	31721.46	38393.83	41500.76	70399.13	72251.40	78364.55	87342.43
QX11	6.9700	5.2925	11.7904	11.7847	17.4118	5.2385	8.6685	8.0369
QX12	0.1013	0.0206	0.0458	0.0294	0.0466	0.1463	0.0327	0.0499
0	37	166654.20	0.49	9.21	14	37	1	-1	20249,11843,07/17/2014,840014289	1	1	1
1	3960.19	11149.00	43459.49	75565.39	80240.78	84253.92	102636.91	107167.18	123501.97	126025.48	130938.36	143478.06	147336.32	151358.77	166654.20
QX11	30.6895	7.5681	27.8315	8.8681	4.5543	10.6238	22.0717	17.7834	13.3636	53.3269	11.1615	11.0899	29.9146	14.8181
QX12	0.0458	0.0309	0.0431	0.0669	0.0560	0.1025	0.0731	0.1279	0.0566	0.0567	0.1123	0.0609	0.1733	0.0601
0	38	221531.23	0.60	6.59	34	38	1	-1	20249,11843,07/17/2014,840014289	1	1	1
1	12765.84	20384.56	25880.23	32540.58	35272.20	37359.91	40043.74	41966.31	51863.95	59881.04	64365.45	68484.65	74751.25	89159.91	100387.43	102563.57	107573.12	120154.01	123220.64	136121.74	144163.51	147554.81	152252.24	155022.35	168625.20	172775.98	182340.01	192693.46	195496.96	197074.29	203917.69	207200.26	212458.69	220583.63	221531.23
QX11	5.5050	11.5551	11.3149	15.3260	8.0178	7.1283	14.1673	10.1123	6.7207	6.1575	3.6023	10.4853	11.2924	9.1842	11.9783	15.6920	13.4707	8.2272	25.4966	31.0876	8.8426	5.3877	19.0223	7.2266	27.4574	10.1258	9.9812	14.1126	32.7169	8.9401	13.2392	9.9996	9.2905	10.4452
QX12	0.0589	0.1348	0.1217	0.0823	0.0540	0.1239	0.1240	0.0922	0.1589	0.0445	0.0727	0.0653	0.0626	0.1427	0.1024	0.0641	0.0143	0.1512	0.1360	0.1292	0.0707	0.1051	0.0783	0.1193	0.1241	0.0681	0.0937	0.0154	0.0258	0.1252	0.1068	0.1286	0.1155	0.0683
0	39	54946.15	0.25	8.35	2	39	1	-1	20249,11843,07/17/2014,840014289	1	1	1
1	5554.53	54683.77	54946.15
QX11	20.1154	11.4442
QX12	0.0305	0.0728
0	40	66793.01	0.23	10.39	8	40	1	-1	20249,11843,07/17/2014,840014289	1	1	1
1	2036.86	4010.08	20298.38	23630.18	30929.06	34789.63	55013.75	58281.24	66793.01
QX11	7.8848	11.9675	12.6718	17.3836	12.4391	15.6397	12.1446	11.1248
QX12	0.0525	0.1401	0.1087	0.0977	0.0886	0.0153	0.0666	0.0664
0	41	364955.13	0.02	4.79	39	41	1	-1	20249,11843,07/17/2014,840014289	1	1	1
1	2302.88	4153.08	10174.38	26594.68	29557.72	46108.03	59867.90	68904.70	77814.64	94154.66	109776.94	112860.38	120795.44	129468.96	133430.46	135252.66	147529.23	151471.60	161018.64	188283.50	199501.78	201748.43	216092.87	232378.46	234504.99	242021.90	246205.90	252177.37	255039.55	259067.56	278568.64	282339.17	286746.71	295662.19	301078.14	302899.13	308323.43	319036.63	340615.28	364955.13
QX11	13.0808	10.7502	4.0270	27.4740	31.9100	5.4396	10.7675	25.7063	17.4851	11.1021	8.4695	30.5996	7.6024	5.9208	12.2631	20.2620	12.5989	6.5667	8.1028	8.3159	15.9553	33.1234	7.7104	6.0213	14.0034	6.5822	26.4359	8.5843	15.0982	12.4244	8.7119	13.0513	12.3080	5.5911	5.5119	35.3104	6.9927	5.6332	15.6262
QX12	0.0788	0.1165	0.0344	0.0630	0.1085	0.0461	0.0652	0.0712	0.0763	0.0325	0.0439	0.0857	0.0857	0.0692	0.0721	0.0024	0.1144	0.0501	0.0449	0.0794	0.1488	0.0810	0.0253	0.0836	0.0858	0.1116	0.0744	0.0151	0.0430	0.0987	0.0501	0.1145	0.0415	0.0472	0.1137	0.0304	0.0832	0.0355	0.0841
0	42	31988.60	0.11	2.46	4	42	1	-1	20249,11843,07/17/2014,840014289	1	1	1
1	1895.37	13803.64	25243.31	28682.03	31988.60
QX11	7.2407	7.0948	20.7442	38.8329
QX12	0.0892	0.0620	0.1392	0.0113
0	43	74680.41	0.24	5.27	9	43	1	-1	20249,11843,07/17/2014,840014289	1	1	1
1	17846.39	21623.06	24256.64	30681.23	36880.91	43751.10	60059.49	62425.63	68454.02	74680.41
QX11	10.4511	12.1678	10.2259	17.0056	9.8366	9.9109	4.1007	6.2982	34.4204
QX12	0.0529	0.0835	0.0343	0.0241	0.0404	0.1156	0.1059	0.0442	0.0588
0	44	103753.53	0.34	37.28	10	44	1	-1	20249,11843,07/17/2014,840014289	1	1	1
1	1393.42	3152.31	13094.35	20958.23	25577.53	29687.82	35963.55	63706.61	81546.51	97115.77	103753.53
QX11	9.1436	9.0329	10.0218	8.4359	17.0520	8.4519	13.3573	9.8359	7.6472	18.1341
QX12	0.0434	0.0624	0.0665	0.0657	0.0773	0.0976	0.1733	0.0990	0.0641	0.0704
0	45	580489.24	0.30	11.51	75	45	1	-1	20249,11843,07/17/2014,840014289	1	1	1
1	5580.09	47117.40	53749.43	63995.28	74218.65	84972.53	100345.08	107558.99	109895.13	115563.59	118951.05	121902.06	124066.99	135295.13	140979.42	147708.36	150292.92	155369.48	161715.78	163550.35	178182.50	187742.77	195850.20	201219.38	203271.72	214169.92	219090.67	231060.51	233818.21	237137.05	241406.87	253504.49	256270.20	266772.34	269634.19	273015.96	282304.83	286526.69	291726.71	297933.52	305624.34	329268.16	334316.24	336371.56	338696.97	341593.11	363857.37	367791.86	369800.27	377717.61	383299.13	385403.84	389692.35	394425.39	407151.95	423324.95	436882.40	448959.36	451804.25	476532.28	479259.47	494723.55	499575.31	506261.25	514483.37	527903.79	536350.25	541457.23	543347.07	545585.63	549415.15	552320.62	554280.55	561459.10	572063.68	580489.24
QX11	9.9159	9.3578	23.6259	17.0467	7.1693	7.7959	6.7150	7.0833	6.9329	5.0995	8.2069	8.9130	13.1214	9.7490	10.8276	14.8129	8.7815	4.4829	12.3725	11.7571	11.1699	11.5839	7.5914	17.0772	8.3518	7.1280	5.6983	12.8192	10.0367	17.1416	27.8916	38.4790	11.3407	14.9239	12.2854	8.6778	14.2158	6.5533	18.9781	8.1190	8.2698	6.2698	12.3598	6.8608	34.4611	4.3635	7.5139	6.5525	15.2427	8.6546	10.7426	12.3098	7.0024	20.4508	9.0802	24.7762	9.2719	9.7860	11.7415	14.4548	6.9325	7.9418	9.6327	9.3623	5.9212	5.7307	6.3864	15.6170	5.1868	58.3690	22.4667	9.4475	15.4678	7.8637	17.3175
QX12	0.1373	0.0841	0.0389	0.0885	0.0137	0.0725	0.1004	0.0928	0.0712	0.0495	0.0442	0.0620	0.0732	0.0821	0.0989	0.0965	0.0660	0.0640	0.0545	0.0632	0.0297	0.0678	0.0047	0.0472	0.0488	0.0531	0.0225	0.0619	0.0983	0.0680	0.0623	0.0811	0.0628	0.0925	0.0486	0.0055	0.0380	0.1380	0.1038	0.0510	0.0657	0.0551	0.0681	0.0801	0.0229	0.1093	0.0734	0.0727	0.0757	0.0586	0.0107	0.0518	0.0594	0.0396	0.1000	0.1118	0.0828	0.0666	0.0743	0.1343	0.1091	0.0849	0.0751	0.0525	0.0518	0.1011	0.0288	0.0822	0.0636	0.1383	0.0648	0.1081	0.1064	0.1107	0.0481
0	46	384741.90	0.37	17.50	54	46	1	-1	20249,11843,07/17/2014,840014289	1	1	1
1	2494.64	6218.73	27662.43	42788.88	45127.06	58754.57	65238.61	87790.15	99497.51	111753.95	115522.39	120481.74	122717.60	127372.97	130008.31	143833.70	146791.68	153556.55	158724.41	160466.66	165790.03	176560.94	180097.58	188203.80	194499.61	198588.40	207861.24	216925.10	223472.67	227738.31	237370.30	241594.52	245260.90	247331.76	255612.97	266356.55	269376.11	276756.93	288456.66	292724.82	297176.81	311592.32	325783.08	331386.23	336556.70	341161.34	343436.04	349124.14	355829.10	360176.78	373755.07	376244.80	380108.42	381357.78	384741.90
QX11	22.5611	18.2850	35.6839	5.9731	24.3227	19.9644	25.9069	5.0714	10.1523	10.1432	21.0964	21.0347	7.8759	33.4149	5.1561	12.1439	16.8716	22.5279	16.7375	15.4607	10.3690	22.9657	10.0483	6.3346	10.8855	5.3141	7.1755	15.4981	10.7129	5.8272	11.8906	14.7677	6.8382	29.7670	16.4618	17.4077	9.9378	12.9441	9.5085	11.1055	11.1731	12.2871	8.5743	13.0453	15.8557	7.6809	57.8776	11.8209	12.4240	15.2058	7.0937	7.6804	13.3038	10.9252
QX12	0.0437	0.0568	0.0632	0.0774	0.0400	0.0421	0.1102	0.0196	0.0661	0.0822	0.0735	0.0738	0.0743	0.0371	0.1313	0.0712	0.0292	0.0398	0.0741	0.0417	0.1166	0.0826	0.0307	0.1004	0.0936	0.1020	0.0801	0.0650	0.1269	0.0802	0.0040	0.0540	0.0642	0.0951	0.0428	0.1078	0.1066	0.0668	0.0319	0.1029	0.0371	0.0866	0.0634	0.0861	0.0773	0.0772	0.0667	0.1133	0.0719	0.0135	0.0456	0.0586	0.0512	0.1106
0	47	210577.39	0.27	2.89	20	47	1	-1	20249,11843,07/17/2014,840014289	1	1	1
1	58881.36	61712.94	66391.77	74628.82	78366.17	82820.90	92624.68	98499.22	107186.66	116844.30	120752.35	140716.21	164649.60	168588.56	177807.78	179681.61	191112.20	193771.43	197355.08	199173.13	210577.39
QX11	4.6621	22.0562	9.7456	15.2133	6.1595	12.3137	28.7498	29.2841	7.5551	30.2334	12.4951	41.0220	15.1512	6.9872	7.6290	13.8266	10.7431	24.1930	16.6469	6.4826
QX12	0.0971	0.0557	0.1316	0.0741	0.0949	0.1133	0.0469	0.0147	0.1299	0.1224	0.0529	0.0625	0.0428	0.0649	0.0673	0.0573	0.1370	0.0131	0.1099	0.0393
0	48	76050.24	0.42	4.91	3	48	1	-1	20249,11843,07/17/2014,840014289	1	1	1
1	56287.99	68466.03	71514.41	76050.24
QX11	9.7176	7.1465	5.5692
QX12	0.1209	0.0463	0.0190
0	49	85795.89	0.42	18.88	10	49	1	-1	20249,11843,07/17/2014,840014289	1	1	1
1	1932.88	26715.69	29494.35	33729.95	52812.29	59442.17	70508.74	75297.69	77683.93	85658.40	85795.89
QX11	23.7706	19.4872	42.2543	5.8386	6.3995	8.4902	4.9988	11.6469	8.1717	10.3020
QX12	0.0231	0.0142	0.0237	0.0926	0.0917	0.0353	0.1167	0.0694	0.1097	0.1232
0	50	53701.38	0.21	20.46	3	50	1	-1	20249,11843,07/17/2014,840014289	1	1	1
1	2992.36	16589.66	34025.56	53701.38
QX11	8.7974	9.9982	22.2632
QX12	0.0477	0.0718	0.0877
0	51	169093.76	0.16	11.25	20	51	1	-1	20249,11843,07/17/2014,840014289	1	1	1
1	6467.51	12832.81	15859.54	49390.23	54971.72	57677.17	68124.88	74678.34	81439.58	88102.00	89773.30	102228.07	116480.82	120623.27	122873.95	128520.76	148597.20	151837.88	158078.23	167760.24	169093.76
QX11	10.0986	6.3621	14.0924	27.1189	44.7415	39.9509	6.5978	5.3236	13.9918	21.5913	9.2185	8.2726	16.5781	6.4455	6.6262	24.7473	10.4580	18.4902	12.1354	47.4421
QX12	0.0611	0.0966	0.0656	0.0524	0.0914	0.0334	0.0446	0.0573	0.0864	0.1106	0.0131	0.0379	0.0499	0.0509	0.0785	0.1049	0.0048	0.1105	0.0492	0.0451
0	52	242350.28	0.21	11.35	25	52	1	-1	20249,11843,07/17/2014,840014289	1	1	1
1	10817.29	17637.61	27505.45	43657.20	47334.08	58985.31	71238.74	80820.56	93735.09	106613.47	109381.42	124409.63	146020.43	168669.52	180034.24	185434.97	192311.18	195953.10	200870.94	203616.11	207814.88	210652.44	227000.73	233620.97	240429.85	242350.28
QX11	7.1034	11.6719	5.5783	7.9569	12.1577	10.7817	7.9835	13.4858	5.6022	8.3161	14.8176	8.5190	7.2953	17.2789	5.2904	13.2019	8.8500	10.0278	8.4820	23.3876	8.8832	23.6040	40.1245	12.5998	8.9568
QX12	0.1210	0.0853	0.0134	0.0301	0.1177	0.0555	0.0604	0.0915	0.1190	0.1148	0.1359	0.0303	0.1302	0.0758	0.0904	0.0642	0.0812	0.0235	0.0336	0.0049	0.1260	0.1101	0.0609	0.0574	0.1241
0	53	117927.36	0.25	16.98	13	53	1	-1	20249,11843,07/17/2014,840014289	1	1	1
1	12492.56	28697.11	35303.64	49112.21	55250.77	65213.76	67504.63	77683.27	83337.19	95564.27	98280.40	106221.00	116850.44	117927.36
QX11	11.0174	4.7175	20.2867	21.6284	20.7593	8.1072	11.8990	11.8610	4.2325	12.7809	26.7658	5.3026	11.2068
QX12	0.0527	0.0603	0.0572	0.1333	0.1134	0.0608	0.0845	0.1060	0.0539	0.0662	0.0903	0.0363	0.0104
0	54	132211.61	0.02	3.67	15	54	1	-1	20249,11843,07/17/2014,840014289	1	1	1
1	5069.35	18652.64	36234.21	49540.67	53094.94	72718.71	82073.54	88534.47	92374.20	94248.88	96532.64	106569.70	110479.22	120080.18	124546.31	132211.61
QX11	3.9811	14.1014	17.2922	11.5121	31.8474	9.0166	9.9069	47.1627	12.1133	9.6390	9.7511	22.6727	20.6065	44.4191	12.4801
QX12	0.1620	0.0641	0.0504	0.0544	0.0968	0.0547	0.0853	0.0354	0.0812	0.0615	0.0453	0.0547	0.0698	0.0466	0.0684
0	55	159895.87	0.35	3.76	22	55	1	-1	20249,11843,07/17/2014,840014289	1	1	1
1	5410.49	8320.72	20561.70	31170.65	38974.68	42479.10	59396.01	61711.06	63161.39	66447.47	73184.39	89426.23	99805.23	103016.00	106089.76	109680.82	113165.63	127071.37	128729.09	138010.66	148832.32	158626.51	159895.87
QX11	15.5172	17.4442	10.0699	10.3720	11.2533	9.7882	7.0774	5.5697	18.2439	6.5975	14.4330	5.1773	15.7830	5.1114	22.4170	5.3397	11.3209	10.3252	12.8878	7.1709	9.9657	13.9459
QX12	0.0205	0.0250	0.1219	0.0922	0.0618	0.0233	0.0976	0.0406	0.1097	0.0857	0.0686	0.0203	0.0309	0.0958	0.0376	0.0641	0.0854	0.0719	0.0470	0.0925	0.0392	0.1033
0	56	82408.76	0.80	9.49	8	56	1	-1	20249,11843,07/17/2014,840014289	1	1	1
1	16750.00	28177.60	32101.43	45526.67	51506.16	54044.13	60009.66	81643.48	82408.76
QX11	35.6720	4.3561	10.7496	23.2780	8.8366	16.7767	8.2042	9.7474
QX12	0.0639	0.0649	0.0691	0.0222	0.0486	0.0954	0.0582	0.0211
0	57	323639.61	0.31	4.38	35	57	1	-1	20249,11843,07/17/2014,840014289	1	1	1
1	13225.41	26341.14	39712.13	44605.95	54725.33	57340.27	60361.35	64354.28	71299.06	73377.50	80216.51	83970.64	87426.89	115200.26	120385.05	124478.31	126260.06	141542.89	149034.04	170311.77	180667.24	206211.62	213254.94	216083.81	223317.66	239442.29	243523.43	255379.82	267902.00	269612.34	277680.66	285177.26	304090.46	306825.27	322126.80	323639.61
QX11	9.0294	14.8105	9.9995	5.9704	10.2947	5.0239	4.8959	10.0004	10.2970	15.5517	22.5215	14.9807	13.2887	17.0385	19.2869	10.9871	7.4756	18.7299	14.5919	5.7967	20.6253	8.4555	11.4105	10.7655	39.8989	10.1574	10.5632	8.7183	10.5280	5.0048	17.3958	27.2046	10.9769	10.5124	17.2316
QX12	0.0410	0.0944	0.0444	0.1500	0.0839	0.0845	0.0631	0.0549	0.1500	0.0583	0.1172	0.1088	0.0198	0.0798	0.0853	0.0673	0.0190	0.0921	0.0585	0.1187	0.1248	0.0016	0.1204	0.1218	0.1545	0.1200	0.0216	0.0515	0.0329	0.0170	0.0706	0.0713	0.0856	0.0918	0.0796
0	58	84791.07	0.49	7.90	10	58	1	-1	20249,11843,07/17/2014,840014289	1	1	1
1	6726.31	11146.63	19692.80	25328.96	45276.07	48285.13	54847.15	60318.67	72016.33	77589.19	84791.07
QX11	11.7111	15.9230	16.6511	8.8155	39.9950	5.9089	6.7772	7.1775	17.6686	13.5061
QX12	0.0666	0.0834	0.0556	0.0400	0.0866	0.0408	0.0748	0.1103	0.0849	0.0763
0	59	161074.61	0.24	7.27	30	59	1	-1	20249,11843,07/17/2014,840014289	1	1	1
1	1262.41	13562.89	17326.27	21279.95	24222.74	26233.61	35859.59	37337.78	48092.40	49370.52	51672.50	57923.20	61707.55	65750.44	68521.66	70709.92	76746.39	87842.50	89994.53	96736.00	102013.23	105633.73	107907.85	114233.06	120165.78	122337.06	124977.93	133261.06	144264.18	155534.21	161074.61
QX11	4.5872	23.0515	12.7359	5.3667	11.9232	8.2904	11.2841	18.5644	8.6161	17.1986	24.1189	10.9925	7.1321	8.1392	10.1081	10.4407	7.7255	9.6940	9.4441	29.5581	18.5549	5.5308	13.9100	13.3613	20.3205	14.2452	6.2864	12.0451	6.9864	9.0467
QX12	0.0659	0.0681	0.1169	0.0711	0.0574	0.0541	0.0578	0.1094	0.0151	0.0565	0.0339	0.1032	0.0373	0.0639	0.0482	0.0552	0.1123	0.1162	0.0326	0.1166	0.0394	0.1680	0.0383	0.0096	0.0808	0.0737	0.0569	0.0244	0.1120	0.0954
0	60	219629.10	0.36	34.21	25	60	1	-1	20249,11843,07/17/2014,840014289	1	1	1
1	3782.51	7970.95	10943.01	19327.86	27605.28	30614.62	39465.80	54256.63	85533.59	92683.24	96141.55	106536.14	117200.05	118670.69	120704.06	125808.32	129211.04	138772.16	143054.19	152420.12	166457.98	173269.73	178947.41	184608.67	194379.67	219629.10
QX11	45.7893	14.8872	9.9495	8.5873	19.4141	8.5185	12.4620	21.9558	8.7051	15.3174	19.4184	15.9078	9.6544	8.0504	12.3456	11.0506	6.9992	4.5251	89.8707	7.0000	7.0709	10.0918	20.8087	8.4868	12.2830
QX12	0.0144	0.1046	0.0874	0.0196	0.0584	0.0701	0.1061	0.0918	0.0429	0.0558	0.0828	0.0179	0.0911	0.0058	0.0267	0.1282	0.0951	0.0537	0.0136	0.0879	0.0931	0.0887	0.0206	0.0502	0.0461
0	61	30489.01	0.18	4.43	5	61	1	-1	20249,11843,07/17/2014,840014289	1	1	1
1	8756.86	10597.25	14178.00	28137.67	29899.56	30489.01
QX11	12.5514	36.5800	17.8759	70.5056	4.8604
QX12	0.1105	0.0594	0.0756	0.0596	0.1030
0	62	29128.51	0.61	4.09	4	62	1	-1	20249,11843,07/17/2014,840014289	1	1	1
1	3320.63	13739.46	20194.36	29093.97	29128.51
QX11	10.5858	12.3993	8.8764	34.3165
QX12	0.1171	0.0517	0.0609	0.0372
0	63	99067.70	0.32	5.97	10	63	1	-1	20249,11843,07/17/2014,840014289	1	1	1
1	7942.94	15645.88	23744.14	27083.17	49824.63	59249.86	64636.85	75361.79	79741.66	83358.66	99067.70
QX11	14.4429	13.7034	39.8139	5.4872	6.6679	10.6055	4.5193	7.8496	13.6271	7.1584
QX12	0.0266	0.1163	0.0939	0.0774	0.0766	0.0640	0.0992	0.0830	0.0376	0.0770
0	64	226276.03	0.30	11.65	22	64	1	-1	20249,11843,07/17/2014,840014289	1	1	1
1	3630.68	15256.15	19606.31	22560.30	31021.44	40759.02	55471.84	57359.72	68944.18	95713.77	98514.34	104592.24	110080.78	112382.77	119776.59	138158.68	146359.26	156526.06	167094.21	216074.26	222958.94	224888.06	226276.03
QX11	6.5331	16.3547	21.7056	7.1527	8.5840	5.0434	13.0943	24.3789	17.9356	20.9108	11.5235	34.0967	13.0450	10.8939	16.0276	31.3873	8.8608	9.2199	28.7012	7.6338	5.5992	8.7321
QX12	0.1150	0.0843	0.0355	0.1014	0.0188	0.0770	0.0153	0.0383	0.0610	0.1091	0.1278	0.0660	0.0960	0.0373	0.1143	0.0678	0.0739	0.0593	0.0940	0.0618	0.0294	0.0800
0	65	227279.21	0.49	4.84	28	65	1	-1	20249,11843,07/17/2014,840014289	1	1	1
1	344.73	12058.17	18383.01	30644.32	37658.29	40079.91	43180.10	65199.73	68252.83	80642.75	92477.09	142535.61	153739.51	157504.61	161031.48	168495.27	172535.45	177141.20	188709.69	196385.89	198428.70	201459.57	204914.67	210954.59	215143.60	220537.52	222726.78	226464.78	227279.21
QX11	8.0673	7.5557	8.5360	23.6168	12.5977	4.6940	6.9814	11.8428	7.9434	5.5773	9.9090	11.1992	5.7395	10.7533	10.1007	13.4191	17.6736	10.6486	7.5102	22.1985	21.1741	10.1869	8.9208	10.4564	7.1726	8.1600	5.4566	15.2624
QX12	0.1286	0.0240	0.1006	0.0623	0.0558	0.1506	0.0432	0.0517	0.0423	0.0952	0.0583	0.0614	0.1138	0.0376	0.0195	0.0682	0.0464	0.0644	0.0491	0.0652	0.1119	0.0328	0.1310	0.0806	0.0384	0.1340	0.0595	0.0921
0	66	270371.52	0.26	6.54	35	66	1	-1	20249,11843,07/17/2014,840014289	1	1	1
1	7413.71	11147.12	14702.63	20379.43	33265.70	51001.84	53329.66	72812.69	75348.80	95631.70	107074.08	112237.67	119000.83	127755.44	130168.77	137435.62	150952.43	153841.25	160617.15	167328.17	172525.80	183260.90	186801.44	194762.11	200928.23	205074.16	214371.13	223150.64	229515.14	243275.45	247098.41	251129.28	253296.24	261486.72	264597.48	270371.52
QX11	20.0888	5.6649	7.1631	8.2621	12.9495	20.6766	6.4092	15.2534	11.1009	7.1982	11.4594	10.1150	9.2111	19.6835	8.1468	19.9684	14.0843	5.8708	11.0647	15.9900	4.8451	33.6832	10.0782	29.9610	15.2748	6.7847	6.5642	3.1386	12.3027	14.8369	9.9842	5.0852	6.6981	16.7984	24.6291
QX12	0.0887	0.0766	0.0760	0.0586	0.0538	0.0496	0.0363	0.0471	0.0719	0.1204	0.1014	0.0558	0.0712	0.0756	0.1182	0.0731	0.0422	0.0866	0.0900	0.0926	0.0780	0.0905	0.0940	0.1020	0.0637	0.0749	0.1184	0.0805	0.0784	0.0998	0.0558	0.0340	0.0624	0.0857	0.0976
0	67	376173.02	0.21	6.54	42	67	1	-1	20249,11843,07/17/2014,840014289	1	1	1
1	706.58	6398.84	14987.14	19362.35	31889.72	33602.62	39171.68	61874.42	72179.50	74191.78	79417.30	82320.59	96434.85	103702.99	118479.85	121025.93	129687.74	141833.89	146080.74	156336.87	182716.19	186998.90	190784.92	209179.55	233904.09	236958.55	238917.75	245794.86	250110.03	259650.30	263750.83	268794.87	275645.73	284384.26	292960.33	302760.24	309648.54	327367.17	331598.41	334291.65	366225.05	371068.31	376173.02
QX11	26.7067	8.7474	14.5772	6.9786	14.7447	14.3650	39.0000	6.8797	17.5648	8.4673	12.6088	5.5565	6.7493	11.7800	16.6743	11.9806	26.4359	21.4978	27.4760	5.0264	15.1327	6.7413	14.3163	6.7269	6.5085	10.8890	55.8441	6.4527	18.9433	121.4475	6.1139	5.8099	10.3992	8.0388	33.0209	11.8663	6.1914	5.1104	12.3686	10.2165	13.6426	15.3656
QX12	0.0448	0.0424	0.0300	0.0646	0.1767	0.0122	0.0251	0.0399	0.0668	0.0012	0.0509	0.0547	0.0127	0.1042	0.0296	0.0208	0.0300	0.0650	0.0759	0.0662	0.0970	0.1263	0.0824	0.0648	0.1415	0.1227	0.0464	0.0984	0.1243	0.0420	0.0653	0.0242	0.0974	0.0808	0.1063	0.0097	0.0272	0.0625	0.0421	0.0804	0.1583	0.0657
0	68	358011.76	0.28	5.22	41	68	1	-1	20249,11843,07/17/2014,840014289	1	1	1
1	1995.04	4306.94	7140.91	30627.06	32882.08	46422.93	65818.11	81252.15	87621.02	93392.09	95497.07	126741.30	136778.83	140281.45	144032.76	166016.65	177985.17	184539.55	189182.61	193636.58	196039.38	198055.55	204836.75	209139.90	232968.83	239565.31	242697.46	254736.85	261543.44	273374.96	277489.02	287316.99	293733.81	296931.10	315488.76	317212.30	322694.32	325042.86	329194.20	343563.00	356181.01	358011.76
QX11	11.0345	8.2361	9.8971	25.4066	10.3582	9.3426	13.6916	7.7412	6.3147	15.1955	11.4525	10.8931	8.0065	7.7208	11.1223	4.5368	17.2831	6.3914	12.7291	20.9534	9.7582	15.9112	12.7302	12.0516	18.3096	5.1586	17.6077	9.7509	15.7544	7.7875	14.7778	5.8662	12.1434	8.8056	6.0394	8.3224	15.2096	5.1584	6.5630	7.6892	9.4407
QX12	0.0937	0.0792	0.1417	0.0482	0.0025	0.0964	0.1360	0.0355	0.1118	0.1826	0.0180	0.1005	0.0072	0.0559	0.0086	0.0835	0.0884	0.0918	0.0368	0.0743	0.0655	0.1264	0.0958	0.0968	0.0370	0.0892	0.0966	0.0429	0.0017	0.0888	0.0473	0.0404	0.1023	0.0601	0.1620	0.0905	0.0209	0.0832	0.0862	0.1052	0.1422
0	69	271485.91	0.46	8.22	28	69	1	-1	20249,11843,07/17/2014,840014289	1	1	1
1	6659.17	12602.18	15392.73	32328.43	34602.33	42214.19	45374.02	51040.00	70342.80	77931.69	87298.39	97729.21	101822.90	118106.52	121742.95	140767.23	171124.92	180017.48	189451.04	203530.25	204917.09	209127.42	218757.44	245019.24	250716.85	253333.59	263593.04	270088.18	271485.91
QX11	8.5216	8.5344	10.5683	7.8915	11.2058	18.1402	6.3296	9.8791	16.0656	12.0153	7.2109	17.9997	12.2014	32.1258	12.2242	8.7946	8.0374	11.6989	7.9444	7.1283	13.4358	15.6526	7.1687	17.1400	16.2422	9.5742	16.3875	10.1753
QX12	0.0933	0.1105	0.1026	0.0538	0.0762	0.0574	0.0603	0.0203	0.0530	0.1136	0.0857	0.0703	0.0479	0.0868	0.0732	0.1312	0.1180	0.0688	0.0530	0.0702	0.0753	0.0027	0.0996	0.0431	0.1217	0.0755	0.0820	0.0515
0	70	230525.04	0.60	3.56	31	70	1	-1	20249,11843,07/17/2014,840014289	1	1	1
1	2061.77	5369.97	13350.67	36123.85	39005.18	49834.52	54368.58	57511.16	60111.56	70345.00	76316.89	78856.52	81872.97	103672.93	105454.52	107615.76	112722.07	116643.01	122459.57	126021.16	130629.42	139257.85	141722.59	147714.44	158738.45	162674.15	163856.59	204498.67	211040.60	214106.01	229666.94	230525.04
QX11	6.0658	10.6203	9.0610	17.0587	23.3916	9.1435	16.1970	5.1411	10.4672	8.3439	5.8609	28.8851	8.9482	10.2458	4.2312	4.9261	4.0391	23.1121	27.2299	8.3526	15.6420	14.1640	14.3467	18.1700	9.5443	10.9709	14.2386	10.3788	11.5246	6.6220	17.4841
QX12	0.0784	0.0195	0.0853	0.0863	0.0193	0.0652	0.0860	0.0536	0.0342	0.0333	0.0752	0.0564	0.0516	0.0189	0.0309	0.1364	0.0956	0.1493	0.0954	0.0704	0.0797	0.0842	0.0921	0.0601	0.0772	0.0611	0.0714	0.1237	0.1500	0.0442	0.0695
0	71	93947.78	0.57	6.43	8	71	1	-1	20249,11843,07/17/2014,840014289	1	1	1
1	6346.64	16141.71	18817.77	29625.88	33470.76	61792.84	69114.54	84575.54	93947.78
QX11	6.6727	8.9927	8.0123	11.1401	14.2936	11.1353	12.7690	15.8018
QX12	0.0991	0.1113	0.0507	0.0339	0.0856	0.0778	0.0968	0.0181
0	72	154679.76	0.66	40.71	11	72	1	-1	20249,11843,07/17/2014,840014289	1	1	1
1	3565.15	5226.34	14298.64	27686.06	41420.23	73847.25	83772.28	90821.41	116866.21	144309.94	154065.43	154679.76
QX11	15.2805	5.8138	6.7467	16.9874	7.8787	6.6064	4.6498	9.1182	12.1772	16.8116	6.7314
QX12	0.0223	0.0952	0.0884	0.0546	0.0574	0.0476	0.1342	0.0783	0.0832	0.0514	0.0191
0	73	124676.20	0.69	9.49	10	73	1	-1	20249,11843,07/17/2014,840014289	1	1	1
1	7970.28	15238.12	26257.42	29959.69	32937.94	41151.72	52394.82	57500.14	68289.46	93976.02	124676.20
QX11	5.1013	13.9368	6.1601	11.3287	4.9307	11.5681	11.3601	16.2944	5.7254	13.2156
QX12	0.1732	0.1274	0.0633	0.0692	0.0599	0.0592	0.0532	0.0921	0.0702	0.0556
0	74	175126.99	0.20	12.50	21	74	1	-1	20249,11843,07/17/2014,840014289	1	1	1
1	4800.67	8768.81	12564.64	15947.25	33426.60	36356.15	39822.16	46562.42	63089.76	73109.02	76299.35	79180.92	83023.18	86380.19	102011.33	111115.73	121909.11	128578.19	131686.63	161202.10	168419.60	175126.99
QX11	7.8364	14.7174	12.9723	5.4041	12.3057	12.6058	12.1433	7.4744	14.0376	7.0101	12.2455	9.3090	15.1146	6.9395	6.8502	10.1130	10.5929	23.1442	11.0474	4.9270	15.2359
QX12	0.0895	0.0479	0.1252	0.1486	0.0853	0.0654	0.1151	0.0405	0.1098	0.0540	0.0015	0.1089	0.0700	0.0820	0.0413	0.0587	0.1066	0.1254	0.0459	0.0248	0.0119
0	75	239778.61	0.17	9.51	23	75	1	-1	20249,11843,07/17/2014,840014289	1	1	1
1	23060.87	27192.46	33236.56	36139.16	40160.66	59587.47	67790.24	82300.08	84024.03	121852.83	146516.86	150630.91	154060.51	158813.51	162672.80	181240.09	185748.27	202321.39	204735.58	209722.32	222201.81	226124.15	229962.83	239778.61
QX11	8.1942	5.6075	6.1060	7.5637	5.1447	23.1046	16.8555	10.7512	10.9086	11.5616	5.2352	7.4874	39.1360	16.7596	19.7184	8.5306	22.0725	12.6841	9.9310	21.4465	21.3311	7.2573	5.9583
QX12	0.0486	0.0434	0.0511	0.0439	0.0476	0.0720	0.0455	0.0440	0.0465	0.1045	0.0907	0.0490	0.0510	0.1073	0.0707	0.0231	0.0511	0.0654	0.0779	0.1022	0.0628	0.0619	0.0619
0	76	146267.88	0.21	23.78	13	76	1	-1	20249,11843,07/17/2014,840014289	1	1	1
1	7333.86	20991.11	38351.86	74653.40	81185.43	83600.96	89989.13	93830.89	95615.14	97987.82	107684.30	111586.92	135921.31	146267.88
QX11	14.7065	14.9640	14.6298	11.1688	21.7576	15.2134	21.0460	7.5145	7.0174	10.4990	12.1830	18.2240	26.2327
QX12	0.0430	0.0749	0.0557	0.0658	0.0375	0.1343	0.1245	0.0969	0.0478	0.0299	0.0541	0.1036	0.0516
0	77	85187.78	0.37	7.40	10	77	1	-1	20249,11843,07/17/2014,840014289	1	1	1
1	1700.69	17900.26	45404.83	49445.40	62153.14	65579.45	72779.58	75751.76	79466.17	83516.21	85187.78
QX11	9.1224	7.9744	12.1584	5.7126	14.6635	12.0231	7.6386	13.2324	13.2515	38.2401
QX12	0.0540	0.1085	0.0692	0.1298	0.0793	0.0844	0.0853	0.0278	0.0642	0.0512
0	78	468803.07	0.42	36.21	58	78	1	-1	20249,11843,07/17/2014,840014289	1	1	1
1	17175.43	25067.10	28342.08	45362.82	48847.89	52327.89	59133.91	60739.45	75086.48	85383.48	88600.58	91601.02	95312.07	98729.66	112574.14	114212.87	123275.40	134052.35	143809.46	172370.68	180264.59	204728.48	208367.10	214896.11	223449.54	225126.66	247051.86	249853.46	255751.84	258339.77	260695.00	267589.34	269623.86	275674.95	277520.97	305261.18	307659.30	319147.58	327149.51	330734.66	337219.34	343469.44	346108.77	350850.54	388976.51	396048.23	409421.00	418186.04	421972.05	426446.91	429935.47	440773.48	444998.48	447391.81	454969.76	458403.80	462886.39	466820.44	468803.07
QX11	7.6848	8.9804	12.0095	10.7991	10.4042	41.0233	21.6220	12.8313	4.0950	7.6226	25.6030	12.1170	8.8022	7.1374	6.2964	16.9955	7.0465	9.9714	8.5610	18.6650	13.7903	15.5988	17.1150	13.7376	10.3938	12.6023	6.9398	23.1631	2.7313	5.1691	8.5766	7.1023	9.0803	5.5039	11.2104	49.4839	40.9163	9.6864	16.2069	15.3179	9.5897	6.0052	8.1919	14.7116	9.7409	13.1592	18.4471	6.3316	4.6302	8.5394	9.5486	3.7288	10.1065	16.8815	8.3177	7.9769	22.3556	21.3043
QX12	0.1082	0.1550	0.0660	0.0548	0.0794	0.0714	0.0970	0.0121	0.0555	0.1182	0.1053	0.0929	0.1406	0.0131	0.0696	0.1069	0.0743	0.0761	0.0859	0.0289	0.0834	0.1014	0.0496	0.1054	0.0615	0.0475	0.0793	0.0791	0.0731	0.0191	0.0591	0.0912	0.1172	0.0955	0.0486	0.0355	0.1210	0.1285	0.0448	0.0943	0.0326	0.1000	0.0549	0.1727	0.1284	0.0487	0.1053	0.0055	0.0396	0.0476	0.1160	0.0711	0.0097	0.1390	0.0938	0.0531	0.0156	0.1316
0	79	91756.08	0.20	11.67	16	79	1	-1	20249,11843,07/17/2014,840014289	1	1	1
1	7872.27	12362.88	18006.51	19456.39	27737.44	29290.70	36290.27	44466.77	51418.45	54068.13	62731.38	64992.41	71918.83	73971.93	80010.07	81821.27	91756.08
QX11	17.4502	30.9409	4.1669	10.0741	54.3175	16.5157	10.2070	95.8223	15.2853	8.3520	10.0292	14.1111	12.7123	17.4010	4.7394	12.4870
QX12	0.0731	0.1269	0.0367	0.0592	0.1159	0.0749	0.0683	0.0574	0.0746	0.1020	0.0611	0.1112	0.0873	0.0676	0.0584	0.0529
0	80	105300.75	0.59	26.56	13	80	1	-1	20249,11843,07/17/2014,840014289	1	1	1
1	3588.94	7330.73	19824.50	22070.77	26255.90	29077.30	31064.91	43080.47	54122.42	62616.26	67720.87	79596.12	102871.28	105300.75
QX11	8.0230	12.8867	19.8313	26.8118	3.1503	23.2795	9.7230	15.4437	12.0020	8.6421	13.6862	31.7808	6.2476
QX12	0.0076	0.0757	0.1126	0.0614	0.0043	0.0444	0.0733	0.1276	0.0655	0.0616	0.1630	0.0048	0.0728
0	81	176030.78	0.43	9.90	26	81	1	-1	20249,11843,07/17/2014,840014289	1	1	1
1	1643.53	3870.30	8553.30	10558.87	15861.37	19284.05	21306.34	22804.70	33779.74	35991.64	38986.07	46690.17	68522.60	77094.43	86902.87	92541.42	98161.37	105791.15	119070.40	134713.42	145633.10	148342.12	150699.86	152665.34	162898.55	175112.73	176030.78
QX11	21.2666	6.5423	16.7115	10.2514	12.8658	18.6070	19.5108	9.1666	9.4794	16.9548	16.2246	8.7490	6.3451	18.7660	11.8942	27.3687	10.1730	11.1680	14.5621	17.2781	9.0879	26.3016	36.5571	10.7353	20.4120	15.8091
QX12	0.1029	0.0188	0.0197	0.0714	0.0603	0.0620	0.1342	0.0988	0.0362	0.0187	0.0335	0.0031	0.0153	0.1361	0.0436	0.0708	0.0721	0.0523	0.1401	0.1181	0.0642	0.0852	0.1363	0.0799	0.0993	0.0803
0	82	99232.37	0.01	10.71	13	82	1	-1	20249,11843,07/17/2014,840014289	1	1	1
1	5535.53	13682.62	16685.61	28476.54	34406.14	38174.76	49095.03	52931.16	62698.12	69054.75	75745.32	77631.94	86323.79	99232.37
QX11	15.8074	10.8962	3.9928	5.4742	8.0416	10.9006	28.5482	10.5253	16.1041	12.4327	11.6181	30.1985	5.5161
QX12	0.0737	0.0214	0.0574	0.0752	0.0369	0.0509	0.0235	0.0741	0.0313	0.0931	0.0707	0.0865	0.0503
0	83	146653.95	0.50	14.80	17	83	1	-1	20249,11843,07/17/2014,840014289	1	1	1
1	34590.74	39144.69	41434.34	51638.91	82315.87	83994.01	90443.80	94217.80	98255.80	101619.57	104163.39	110541.10	114705.29	120823.56	122390.32	140793.10	144890.23	146653.95
QX11	11.7610	12.7777	10.5649	38.4636	14.2686	5.9940	5.4292	11.1122	15.6983	7.2283	14.1582	9.9169	24.6359	20.7980	6.6515	9.9012	7.4345
QX12	0.0784	0.0900	0.1424	0.0997	0.0896	0.1420	0.0151	0.0776	0.0709	0.0678	0.0901	0.0799	0.0438	0.1047	0.0793	0.1005	0.0697
0	84	86112.15	0.12	7.58	16	84	1	-1	20249,11843,07/17/2014,840014289	1	1	1
1	7382.18	22195.77	24440.03	29661.86	31447.35	33911.85	42591.23	44177.45	46327.20	48390.62	56586.08	65744.36	71896.40	75934.82	83249.26	85078.14	86112.15
QX11	13.9643	9.8389	5.9519	19.1014	13.9066	5.0217	5.1283	19.2002	34.7299	8.8386	9.9714	7.1531	19.2870	9.3124	6.2982	8.6205
QX12	0.0758	0.0153	0.0709	0.0240	0.1195	0.0249	0.0942	0.0599	0.0755	0.0392	0.1146	0.0821	0.0628	0.0738	0.0353	0.0591
0	85	145875.21	0.27	4.42	14	85	1	-1	20249,11843,07/17/2014,840014289	1	1	1
1	7545.56	23474.87	30996.30	58211.89	60043.38	66660.79	71800.92	74612.61	89896.98	104416.18	106884.28	127104.19	129301.43	144327.89	145875.21
QX11	14.7905	30.1967	11.7984	20.4441	7.4015	9.6997	12.8283	7.0897	8.0973	4.9493	49.6272	38.2288	8.1619	24.6364
QX12	0.0613	0.1126	0.0911	0.0720	0.1271	0.0392	0.0949	0.1378	0.0328	0.0560	0.1001	0.0563	0.1134	0.0487
0	86	140994.38	0.21	4.55	14	86	1	-1	20249,11843,07/17/2014,840014289	1	1	1
1	20535.14	25510.35	33745.58	45466.27	54110.87	60891.12	102491.69	104971.50	109387.85	111428.29	122229.13	125869.93	131344.13	139872.13	140994.38
QX11	10.8942	11.2981	9.2897	7.8486	9.2076	18.6164	14.9005	11.9003	8.9705	39.5909	16.0377	17.1021	6.7265	8.1978
QX12	0.0010	0.0940	0.0280	0.0782	0.0146	0.0488	0.0775	0.0509	0.0690	0.1189	0.0734	0.1378	0.0319	0.0439
0	87	157508.24	0.23	4.61	20	87	1	-1	20249,11843,07/17/2014,840014289	1	1	1
1	4911.72	10883.85	18142.56	20128.59	22022.67	27041.40	30790.81	32924.27	40537.62	71721.79	102316.48	108986.09	111865.45	116597.05	124626.40	128644.99	133032.93	142861.93	148706.83	157433.70	157508.24
QX11	5.4747	17.0203	11.8749	12.2384	7.0758	9.0611	41.4731	16.1302	7.5243	6.4742	7.1268	15.1948	11.2375	16.7801	32.3131	6.4719	3.4987	4.5233	16.7213	24.5188
QX12	0.0872	0.0465	0.1245	0.0880	0.0448	0.1247	0.0878	0.0265	0.1209	0.0546	0.0689	0.0628	0.0637	0.0142	0.0471	0.0993	0.1094	0.0985	0.0331	0.1225
0	88	126662.80	0.45	3.92	12	88	1	-1	20249,11843,07/17/2014,840014289	1	1	1
1	17796.75	48215.22	54881.19	57749.63	62300.79	69772.39	74540.76	94498.73	103181.33	110854.71	112846.42	116618.79	126662.80
QX11	12.9171	18.1140	17.5215	13.6412	6.3629	8.4436	32.3088	9.7009	11.6615	15.8308	35.3885	8.2949
QX12	0.0004	0.1023	0.0694	0.0354	0.0949	0.0062	0.0305	0.0427	0.1034	0.0057	0.0518	0.1092
0	89	202501.41	0.28	30.80	20	89	1	-1	20249,11843,07/17/2014,840014289	1	1	1
1	20284.63	23712.07	34652.43	38074.85	39401.42	42490.84	70222.79	72273.14	80941.46	93779.02	109063.07	117111.10	120951.31	131219.29	144410.59	153610.86	157428.42	166907.64	174277.84	179129.23	202501.41
QX11	11.0051	3.5267	6.5708	21.9757	5.6884	9.5062	8.3137	50.0249	8.4952	12.4872	14.9773	11.9872	7.0701	17.4583	14.5253	9.6372	12.5494	6.4224	4.4744	7.6060
QX12	0.0226	0.0320	0.0734	0.1446	0.0682	0.1214	0.0544	0.1436	0.1109	0.1288	0.0784	0.1215	0.0436	0.0612	0.0981	0.0001	0.0486	0.0672	0.0562	0.1515
0	90	69290.56	0.43	14.65	12	90	1	-1	20249,11843,07/17/2014,840014289	1	1	1
1	196.16	11820.27	15866.30	25313.70	28769.03	32185.11	37580.22	42095.61	44965.88	57195.86	61515.79	67543.69	69290.56
QX11	9.3641	12.0596	14.0685	8.5147	15.6220	11.2994	25.7541	19.2528	23.6567	16.8125	5.6862	14.2424
QX12	0.0883	0.0815	0.1273	0.0076	0.0606	0.0661	0.1129	0.0452	0.0272	0.0126	0.0322	0.0687
0	91	282510.32	0.57	56.68	28	91	1	-1	20249,11843,07/17/2014,840014289	1	1	1
1	4495.90	11008.52	38925.17	44335.99	52706.48	57786.14	70657.35	76492.99	98649.09	110647.73	115767.21	118839.47	132591.12	139686.99	150505.38	154197.89	156686.93	165034.71	175705.23	177023.18	192306.02	217063.08	224910.81	238304.34	267154.41	270233.10	272020.55	278862.24	282510.32
QX11	29.1512	13.1379	10.5059	10.7612	19.0551	16.1096	10.8997	18.4758	25.1054	10.7388	8.8617	3.1807	8.3671	9.5068	6.7800	20.2828	9.0543	12.1907	7.5466	36.9135	11.3745	28.8047	7.6215	5.2297	11.7834	10.3629	3.7900	9.2844
QX12	0.0351	0.1010	0.1133	0.0650	0.0673	0.0991	0.1212	0.1776	0.0337	0.1066	0.0919	0.0111	0.0766	0.0979	0.0436	0.1173	0.0992	0.0528	0.0679	0.0975	0.0307	0.1479	0.1251	0.0382	0.0714	0.0251	0.0563	0.0644
0	92	48598.78	0.22	25.65	2	92	1	-1	20249,11843,07/17/2014,840014289	1	1	1
1	2229.01	36613.93	48598.78
QX11	11.5239	31.6068
QX12	0.0520	0.1017
0	93	32641.80	0.16	6.83	2	93	1	-1	20249,11843,07/17/2014,840014289	1	1	1
1	13771.17	21157.90	32641.80
QX11	13.7516	11.0673
QX12	0.1266	0.0874
0	94	501174.60	0.71	11.15	63	94	1	-1	20249,11843,07/17/2014,840014289	1	1	1
1	4661.89	14329.92	18669.18	21778.08	40809.41	46793.73	61771.83	67215.26	76220.03	79782.01	82048.88	85826.06	88131.49	100856.81	107250.55	112623.08	114268.07	116116.14	123038.77	128068.19	130833.06	146444.89	179523.84	201481.90	207139.11	210657.31	216393.53	221627.40	235151.98	237952.30	242049.00	253830.80	261131.43	264405.14	267626.42	269639.70	282431.81	284034.70	285785.68	293651.14	300602.70	306861.04	311931.41	317474.27	322529.18	327499.28	339395.90	342654.60	363061.30	385078.27	397066.12	432799.27	435604.36	441965.98	452021.58	454701.64	458417.36	461249.54	468945.41	472009.00	490002.37	495100.94	497420.69	501174.60
QX11	24.8398	20.7631	14.9775	5.9999	18.2289	16.4751	40.7935	12.7891	12.2528	7.1038	13.1196	15.9266	6.6804	7.5148	6.2397	12.0686	14.7857	7.3132	12.3854	12.1125	6.0414	17.0269	32.3636	11.5627	6.6876	21.5845	5.3290	16.0082	5.9099	7.0262	20.9932	44.1972	14.3959	16.2197	15.9235	14.6622	11.8749	15.4710	8.4400	12.4377	6.2596	9.7674	29.0191	10.3056	11.7871	37.6879	4.0206	20.9290	8.3061	13.1162	5.3557	17.6602	9.1113	5.6237	9.3298	15.3505	13.3055	24.4928	6.8648	16.4988	5.5940	12.2663	15.7448
QX12	0.1282	0.1166	0.0825	0.0824	0.0678	0.0059	0.1126	0.1043	0.0843	0.0495	0.0134	0.0518	0.1242	0.0699	0.1182	0.1261	0.0633	0.0631	0.0688	0.0904	0.0574	0.1374	0.0566	0.1110	0.0881	0.0828	0.0476	0.0520	0.0810	0.0802	0.0647	0.0262	0.0677	0.1762	0.0467	0.0408	0.0364	0.0198	0.0511	0.1116	0.1172	0.0704	0.0781	0.0873	0.0101	0.0948	0.0572	0.0395	0.0572	0.1343	0.0677	0.0756	0.0259	0.0622	0.0665	0.1052	0.0457	0.0525	0.0453	0.1498	0.0845	0.0645	0.0878
0	95	108793.16	0.16	7.06	13	95	1	-1	20249,11843,07/17/2014,840014289	1	1	1
1	5584.28	30902.53	37600.46	48088.50	58092.55	66250.25	68912.16	84370.09	91745.34	99496.40	103035.81	105976.49	108345.47	108793.16
QX11	16.0341	7.5419	13.7573	20.7077	5.3508	7.4828	40.1398	10.4927	7.0186	14.2306	9.9777	6.6575	10.9791
QX12	0.0582	0.0552	0.0093	0.0233	0.0613	0.0442	0.0524	0.0768	0.0096	0.0801	0.1194	0.0651	0.0946
0	96	126863.66	0.52	6.77	14	96	1	-1	20249,11843,07/17/2014,840014289	1	1	1
1	6277.03	8756.34	13958.75	19647.62	40424.99	54533.82	61167.10	66902.72	72388.03	82235.46	90583.09	112541.61	123187.23	125412.61	126863.66
QX11	9.4359	2.6801	7.2339	9.7641	9.3816	6.4463	3.1842	9.4311	9.8584	23.3463	6.2673	4.1736	15.7586	4.1213
QX12	0.0452	0.0405	0.1007	0.0546	0.1260	0.0784	0.0920	0.0977	0.1033	0.0645	0.0660	0.1355	0.0520	0.0876
0	97	79640.14	0.44	8.80	11	97	1	-1	20249,11843,07/17/2014,840014289	1	1	1
1	2727.45	11270.76	16327.73	20575.01	24516.79	29386.00	36429.24	47236.70	70005.52	72266.03	77876.47	79640.14
QX11	5.4367	10.5761	5.5977	5.7771	22.4196	25.8657	18.7409	33.5761	18.4852	14.2516	7.4620
QX12	0.0410	0.0716	0.0923	0.0409	0.0627	0.0524	0.0675	0.0765	0.1063	0.0490	0.0995
0	98	35158.50	0.16	225.47	4	98	1	-1	20249,11843,07/17/2014,840014289	1	1	1
1	18704.39	22702.02	24516.37	32060.82	35158.50
QX11	8.2433	6.3222	4.9338	9.2131
QX12	0.0791	0.0505	0.0796	0.0649
0	99	105291.02	0.15	2.14	15	99	1	-1	20249,11843,07/17/2014,840014289	1	1	1
1	8230.53	11828.16	14432.55	28145.07	42672.72	51334.30	58848.60	68254.10	73860.74	77979.48	84704.26	87837.92	95521.44	97702.31	100517.71	105291.02
QX11	8.8865	6.5885	5.5373	13.6215	11.4380	13.2941	9.0075	18.6590	6.7696	12.2994	9.1167	7.1523	14.5671	3.6502	5.2592
QX12	0.0331	0.0811	0.0500	0.0418	0.0612	0.0759	0.1168	0.0605	0.0894	0.0412	0.0274	0.1558	0.1537	0.1037	0.1044
0	100	261138.35	0.10	11.88	32	100	1	-1	20249,11843,07/17/2014,840014289	1	1	1
1	162.17	2758.83	19736.40	34278.13	47073.15	61565.39	65323.60	72973.26	83677.33	96216.72	112195.01	118507.83	122118.85	127826.13	129148.92	134647.88	146581.23	149717.01	156231.52	170433.49	179592.25	183928.48	190521.18	199479.34	204089.63	210430.23	221945.40	242620.72	244065.93	247739.79	251277.10	261041.81	261138.35
QX11	5.7392	8.2450	12.7946	10.5256	6.7648	5.8967	4.1649	8.4333	3.8606	29.8730	6.6069	16.8584	5.9915	25.5718	8.9442	11.0822	5.7207	6.5516	9.1178	23.6372	12.9749	20.9044	8.6414	10.0106	15.2669	6.7631	22.7706	5.5274	9.7581	9.4158	6.1704	7.0445
QX12	0.0549	0.0724	0.0556	0.1112	0.0888	0.0366	0.0063	0.0865	0.0710	0.0747	0.1438	0.1036	0.0641	0.1449	0.0752	0.0676	0.0281	0.1634	0.0434	0.0467	0.0470	0.0968	0.0458	0.0303	0.0825	0.1203	0.0734	0.1002	0.0417	0.0144	0.0499	0.0795
0	101	159714.10	0.30	9.11	17	101	1	-1	20249,11843,07/17/2014,840014289	1	1	1
1	1686.58	15967.62	19585.99	34959.98	36906.22	59005.07	67529.43	86925.10	88637.66	94491.47	96909.83	103414.52	108390.01	128256.40	133271.11	139351.58	159372.19	159714.10
QX11	14.5309	6.9703	12.7316	8.7198	5.6482	8.2538	18.3020	4.8144	8.2770	10.5188	2.6868	10.8174	15.7560	9.4927	25.7054	9.6876	15.7455
QX12	0.0977	0.0670	0.0457	0.0767	0.0934	0.1416	0.0117	0.0964	0.0529	0.0912	0.0562	0.0849	0.0869	0.0637	0.0561	0.0890	0.0660
0	102	68086.35	0.10	5.57	10	102	1	-1	20249,11843,07/17/2014,840014289	1	1	1
1	3208.06	7079.53	17420.23	24432.15	27617.44	29825.43	47365.73	54184.79	63655.22	66961.24	68086.35
QX11	18.7204	8.8981	8.2246	11.6981	19.1471	7.7323	11.0373	9.2327	8.8942	27.2202
QX12	0.0829	0.0731	0.1311	0.0311	0.0173	0.0080	0.0587	0.1113	0.0496	0.0918
0	103	303717.02	0.40	4.13	36	103	1	-1	20249,11843,07/17/2014,840014289	1	1	1
1	9224.06	24450.04	30504.58	47574.05	71959.58	75292.75	87629.28	101191.64	117530.77	130378.15	139453.99	140756.52	144902.32	147064.81	154769.96	156975.24	161191.84	166117.69	170318.31	186678.24	188961.29	195820.71	205260.81	219660.37	227710.74	239265.25	243375.04	252791.16	255900.70	259171.01	269598.87	283144.72	284606.61	288960.34	292219.86	294986.83	303717.02
QX11	15.7270	33.5090	9.1396	10.7734	40.1700	15.7761	10.3729	3.6805	5.5549	8.2296	16.9760	21.5921	21.4280	10.1420	8.9448	7.8930	70.6085	7.2551	21.2765	10.3307	18.5213	10.6912	11.0294	11.8593	16.0953	19.3524	11.6553	3.8997	5.4827	6.6933	13.7810	11.9748	8.3679	7.1940	77.8953	18.3938
QX12	0.0619	0.0233	0.0750	0.1131	0.0841	0.0693	0.1373	0.0601	0.0656	0.0625	0.1186	0.0621	0.0159	0.0612	0.0391	0.1135	0.0947	0.0366	0.1291	0.1423	0.1226	0.0463	0.0531	0.0910	0.1326	0.0986	0.0813	0.0459	0.0516	0.0450	0.0261	0.0630	0.1289	0.0497	0.0848	0.0742
0	104	121181.43	0.28	15.09	18	104	1	-1	20249,11843,07/17/2014,840014289	1	1	1
1	4406.64	13157.88	16106.82	21716.60	28156.29	41875.59	52754.87	56618.51	65068.22	74384.68	85611.77	93489.10	95145.27	100078.71	102046.58	107427.37	117560.06	121055.03	121181.43
QX11	9.7423	9.4493	25.1684	9.4060	7.1602	13.6481	10.7844	17.6021	7.3022	7.5718	18.3072	10.3383	38.4299	11.8036	9.5591	24.9578	8.0829	10.5981
QX12	0.1797	0.0721	0.0378	0.1013	0.0505	0.0164	0.0220	0.0805	0.0841	0.1153	0.1224	0.0220	0.0514	0.1076	0.0801	0.0665	0.1035	0.1124
0	105	23833.43	0.20	5.02	1	105	1	-1	20249,11843,07/17/2014,840014289	1	1	1
1	23290.70	23833.43
QX11	19.1568
QX12	0.0800
0	106	221384.83	0.53	49.38	26	106	1	-1	20249,11843,07/17/2014,840014289	1	1	1
1	5781.99	28656.71	36231.62	47462.13	51750.57	54924.38	65383.79	67181.04	70810.32	78383.56	93114.98	95953.05	109301.99	118778.52	122219.56	123848.19	139101.88	141256.51	144106.52	147364.27	149333.02	171899.24	183992.18	189089.33	192289.02	203265.89	221384.83
QX11	11.0021	14.8646	13.8692	8.2714	7.4015	11.2282	28.1584	9.1448	10.2289	2.6867	8.9033	69.2642	40.7800	18.3459	41.9009	20.4446	10.0340	12.2758	21.4598	14.0325	4.6166	5.7871	7.9963	32.3647	5.9680	15.0267
QX12	0.0393	0.1740	0.0259	0.0866	0.1297	0.0659	0.1515	0.0529	0.1076	0.0944	0.0353	0.0477	0.1176	0.0771	0.1173	0.0567	0.0625	0.0801	0.0951	0.1052	0.0540	0.0824	0.0258	0.1038	0.1004	0.1552
0	107	499148.52	0.31	10.75	58	107	1	-1	20249,11843,07/17/2014,840014289	1	1	1
1	4730.77	10186.34	12837.24	15719.05	30909.03	35255.07	37139.85	38849.14	74824.81	80448.67	88049.67	89821.25	91712.88	96622.58	109924.12	133088.97	170900.67	177419.82	180075.92	184841.70	191769.63	193334.85	196637.82	200994.21	210676.21	224986.01	232582.46	234396.39	258090.56	281699.53	285323.34	294618.32	296349.95	307664.05	313822.85	315741.95	346971.43	356032.42	366769.49	369894.11	375375.73	386822.47	401528.60	409076.70	411026.55	414724.83	420195.68	434095.51	435778.51	439222.55	446697.10	448610.79	458039.68	461775.58	473921.85	478884.04	482971.75	491938.18	499148.52
QX11	11.9009	16.2419	11.6644	14.3526	18.4588	4.3729	6.4255	12.5461	13.7558	13.7804	6.6598	5.9150	7.1690	9.3091	10.0478	10.7477	5.6832	3.8139	20.8691	7.0365	6.8377	23.4570	6.7488	9.5888	33.4719	17.9895	14.0672	12.8398	7.3530	6.6649	28.7176	21.5456	8.2351	16.6525	7.5615	14.3821	39.1271	6.6227	14.7126	37.3747	4.0190	7.8675	38.9377	9.6934	10.6999	8.8711	13.6623	8.5860	12.6792	10.9749	12.7682	15.4947	5.8633	9.1395	10.3921	7.9913	4.9220	9.7002
QX12	0.1148	0.0764	0.1310	0.0870	0.0666	0.1422	0.0231	0.0561	0.0343	0.0622	0.0595	0.0380	0.0587	0.0757	0.1328	0.0836	0.0488	0.0889	0.1048	0.0548	0.1056	0.0391	0.0964	0.0480	0.0991	0.0587	0.0332	0.0871	0.0954	0.0219	0.0930	0.0571	0.0809	0.0617	0.0350	0.0487	0.1261	0.0680	0.0142	0.0366	0.0321	0.0922	0.0580	0.0917	0.0857	0.0795	0.0295	0.0130	0.0246	0.0808	0.0743	0.1392	0.0767	0.1393	0.0498	0.0017	0.0642	0.0529
0	108	184202.38	0.04	13.52	15	108	1	-1	20249,11843,07/17/2014,840014289	1	1	1
1	27564.01	50380.25	51848.89	71076.37	90529.66	98746.43	107311.80	113066.99	116692.96	133472.24	134621.47	136748.21	139840.91	156795.91	174573.30	184202.38
QX11	6.4682	11.2156	28.1131	5.1689	13.8366	11.7814	4.8856	10.4510	26.3174	7.0026	9.1828	9.7143	6.4141	8.7563	6.6263
QX12	0.0893	0.1322	0.0829	0.0545	0.0593	0.0973	0.0814	0.0742	0.0722	0.0703	0.0572	0.1000	0.0466	0.0493	0.0430
0	109	27445.63	0.49	23.05	5	109	1	-1	20249,11843,07/17/2014,840014289	1	1	1
1	2803.10	7380.88	10613.07	15784.48	26059.64	27445.63
QX11	16.7260	13.3545	29.9313	7.3547	11.3679
QX12	0.0413	0.1518	0.0405	0.0364	0.0635
0	110	79823.86	0.25	8.18	13	110	1	-1	20249,11843,07/17/2014,840014289	1	1	1
1	608.46	4944.33	11519.04	25045.08	33883.87	37953.74	57665.80	59556.85	63248.57	66576.03	72979.49	75316.84	79161.60	79823.86
QX11	13.2799	4.0382	10.7764	6.5148	15.5534	14.5267	14.6225	6.1425	12.4822	17.2224	15.4925	15.1298	9.4311
QX12	0.0322	0.0464	0.1701	0.0962	0.0857	0.1128	0.1038	0.1408	0.0240	0.0585	0.0369	0.0873	0.0772
0	111	130424.52	0.24	3.56	12	111	1	-1	20249,11843,07/17/2014,840014289	1	1	1
1	7280.50	13554.35	17695.97	21496.04	24403.90	31658.98	51865.84	79703.89	95877.27	101498.34	104387.15	128259.28	130424.52
QX11	9.7302	16.0236	18.0953	6.1960	13.0880	12.7420	13.8955	7.3379	5.4423	6.5254	8.4479	12.8317
QX12	0.1114	0.0987	0.0466	0.0811	0.0746	0.0248	0.0960	0.0985	0.0784	0.0896	0.1280	0.0632
0	112	73368.61	0.29	16.18	7	112	1	-1	20249,11843,07/17/2014,840014289	1	1	1
1	10638.81	25025.37	27947.14	42902.20	48358.19	50800.42	67161.40	73368.61
QX11	6.3206	8.4663	42.1060	13.8435	7.7018	8.6048	16.3655
QX12	0.1203	0.0411	0.0545	0.0840	0.0251	0.0203	0.0297
0	113	76094.19	0.24	8.11	10	113	1	-1	20249,11843,07/17/2014,840014289	1	1	1
1	2209.95	5662.19	18558.61	20684.29	27296.46	46606.91	50699.93	53670.47	67360.90	72695.11	76094.19
QX11	11.9712	6.2921	4.7051	9.2038	30.8489	9.8246	12.2845	6.6763	11.5559	9.9259
QX12	0.1071	0.0401	0.0536	0.1029	0.1304	0.1620	0.0994	0.0116	0.0305	0.1157
0	114	165161.68	0.27	10.72	20	114	1	-1	20249,11843,07/17/2014,840014289	1	1	1
1	6756.41	32233.96	39908.55	44733.59	53766.87	65824.66	69241.04	75468.02	83515.73	102601.91	105643.34	111252.79	113409.44	128748.33	138506.62	148326.97	153207.37	158020.91	160014.27	165006.38	165161.68
QX11	15.0514	15.8439	6.3205	5.7222	8.8309	36.7105	12.4606	5.4135	6.3471	6.1398	6.2080	12.3544	12.7348	21.9415	9.3641	19.1773	6.1971	13.0306	9.0334	15.0645
QX12	0.0329	0.0289	0.1029	0.0498	0.0705	0.0526	0.0722	0.1084	0.1186	0.0624	0.1256	0.0927	0.0402	0.0100	0.0868	0.1037	0.1224	0.0643	0.0566	0.0737
0	115	273408.98	0.39	11.50	30	115	1	-1	20249,11843,07/17/2014,840014289	1	1	1
1	9375.20	13402.04	16921.57	20478.61	22389.81	35927.54	39548.61	51258.46	58931.70	79195.40	103719.18	115248.38	116631.78	121292.01	129778.19	138987.87	153343.90	158640.91	168272.48	172755.55	174300.62	196484.72	204970.44	224459.21	231855.70	234357.35	241541.38	243979.23	245916.58	265691.76	273408.98
QX11	7.7995	10.0412	7.9930	6.7132	8.5711	6.3211	13.9224	10.1218	10.1995	37.0204	7.0723	18.0150	4.5061	24.6185	12.1270	10.3987	8.4514	4.8466	7.7244	8.1825	12.9430	5.9168	4.3242	30.2198	26.6888	15.0482	12.5698	5.4232	11.6704	10.1754
QX12	0.1066	0.0120	0.0515	0.1193	0.0647	0.1394	0.0653	0.0822	0.0346	0.0241	0.0692	0.0689	0.0797	0.0426	0.0342	0.0415	0.1221	0.1117	0.0711	0.0586	0.0059	0.1370	0.0496	0.0944	0.0669	0.0566	0.0613	0.0351	0.1262	0.0598
0	116	323097.12	0.65	4.76	33	116	1	-1	20249,11843,07/17/2014,840014289	1	1	1
1	29140.79	42907.08	56537.57	65585.47	67387.63	71479.67	76934.39	104323.22	108255.92	111006.25	117851.83	119999.60	126686.51	133744.81	146233.89	152480.53	164524.67	166588.48	175210.57	177294.78	203209.42	215453.08	220569.42	228113.10	244454.53	247312.99	251525.82	253260.50	280988.54	301212.30	303294.35	308533.93	310841.60	323097.12
QX11	10.0530	13.5652	5.5279	15.6672	8.1271	6.5609	11.1067	9.6234	7.9711	34.7019	8.8528	16.1517	7.5229	23.4752	6.0896	7.3724	7.4392	18.6245	7.7551	8.6024	9.8412	24.4905	9.7365	6.0107	113.0815	7.8267	5.7300	17.5928	13.0729	12.4962	24.5274	6.3809	10.5522
QX12	0.0266	0.0984	0.0723	0.0617	0.0287	0.0465	0.1074	0.1199	0.0444	0.0672	0.0418	0.0995	0.0246	0.1517	0.1088	0.1022	0.0006	0.0771	0.0251	0.1076	0.0020	0.1344	0.0123	0.0921	0.0703	0.0397	0.0516	0.0925	0.1091	0.0684	0.0453	0.1027	0.0862
0	117	96940.44	0.15	16.20	10	117	1	-1	20249,11843,07/17/2014,840014289	1	1	1
1	6513.24	38828.20	46072.71	49609.99	60373.88	64247.38	68707.49	86971.45	88247.42	94569.31	96940.44
QX11	4.2584	8.6518	22.3390	9.0171	27.9095	7.0754	13.4913	14.5829	7.1108	22.0614
QX12	0.1406	0.0910	0.1084	0.1038	0.0527	0.0218	0.0082	0.0890	0.0523	0.0587
0	118	201181.32	0.05	7.29	22	118	1	-1	20249,11843,07/17/2014,840014289	1	1	1
1	572.74	5283.34	9773.60	31280.99	65132.82	80394.03	83572.78	88589.78	97512.38	104386.82	111220.06	123712.27	126058.62	132165.71	143634.06	145133.44	153029.80	165156.55	171334.82	190402.53	193412.39	197733.41	201181.32
QX11	5.6366	9.1177	13.7043	11.7606	10.0226	43.9214	14.3431	6.7246	4.1494	9.9531	15.0417	6.6654	56.4711	9.6734	6.1512	18.1482	5.0988	17.8934	13.1775	7.7568	9.3672	7.8238
QX12	0.0414	0.0672	0.0365	0.0683	0.0812	0.0538	0.0164	0.0065	0.0204	0.1244	0.0800	0.1179	0.0908	0.0724	0.0575	0.1795	0.1155	0.0698	0.0558	0.0610	0.0527	0.0842
0	119	304282.65	0.25	4.47	34	119	1	-1	20249,11843,07/17/2014,840014289	1	1	1
1	11656.87	15343.02	19376.16	34114.28	36952.74	50457.37	63442.89	70960.77	79203.65	85242.23	88577.18	90507.82	98140.78	113208.56	125360.29	130433.55	133602.04	143109.28	144670.57	187574.29	191143.57	193842.93	205315.33	216118.72	220311.86	228122.25	244342.72	260483.57	264391.59	270251.71	277916.60	286680.05	292629.74	302464.28	304282.65
QX11	36.1517	24.8453	5.4636	16.7004	10.7504	33.6111	9.0246	17.1888	17.5939	6.4618	29.3752	17.6719	19.2877	13.9448	14.9290	8.8760	19.3203	14.6161	8.1795	7.1924	8.4128	18.5487	11.5775	30.2301	19.5710	27.6608	27.1234	21.3968	6.2744	14.6740	6.2631	9.2569	15.0453	12.0447
QX12	0.0071	0.0951	0.0359	0.0451	0.0475	0.0708	0.0592	0.1322	0.1216	0.0471	0.0659	0.0309	0.1048	0.0939	0.0686	0.0056	0.0196	0.0838	0.0476	0.0725	0.0579	0.0467	0.0021	0.1091	0.0173	0.0647	0.0583	0.0413	0.0882	0.0563	0.0460	0.0297	0.0561	0.0955
0	120	162174.17	0.29	3.41	19	120	1	-1	20249,11843,07/17/2014,840014289	1	1	1
1	24690.26	27899.89	52577.77	55731.79	76084.98	79483.76	82028.10	88502.74	92131.66	97967.85	104293.36	111478.27	114033.84	115956.69	127939.97	136929.69	138940.54	147423.72	153144.83	162174.17
QX11	9.8872	7.9318	25.6898	6.2512	20.9478	7.3461	14.9261	41.6137	2.7354	7.4159	5.5122	11.1284	40.4577	3.7656	12.6349	5.3801	11.5521	14.3969	7.4568
QX12	0.0991	0.1074	0.0046	0.1174	0.1267	0.0358	0.0994	0.0477	0.0308	0.0819	0.0707	0.0674	0.0360	0.1656	0.0475	0.0792	0.1111	0.0968	0.0257
0	121	113744.71	0.43	2.45	14	121	1	-1	20249,11843,07/17/2014,840014289	1	1	1
1	699.48	9358.23	14320.16	21386.38	32246.36	36244.74	38641.66	46226.95	54977.78	58043.62	86409.24	100619.89	105006.62	109168.39	113744.71
QX11	5.7077	16.6410	4.4977	7.9776	7.4558	13.5643	5.3759	6.3190	22.2121	25.8991	19.3742	4.9344	10.2307	7.3995
QX12	0.0935	0.0796	0.0420	0.0707	0.0787	0.0598	0.1045	0.0849	0.0588	0.0101	0.1177	0.1023	0.0471	0.0264
0	122	50928.47	0.15	8.03	6	122	1	-1	20249,11843,07/17/2014,840014289	1	1	1
1	8975.31	19827.88	22392.64	24854.81	32161.16	33917.13	50928.47
QX11	36.0253	27.9103	7.1267	5.8104	45.9875	8.6402
QX12	0.0189	0.0413	0.0987	0.0024	0.0931	0.0906
0	123	232053.48	0.53	12.52	32	123	1	-1	20249,11843,07/17/2014,840014289	1	1	1
1	1201.57	5994.32	10386.03	12675.64	16368.74	18348.94	21216.26	25015.34	38829.89	68547.51	100724.76	102438.24	108661.75	114402.90	119054.30	134125.91	136542.33	138321.54	144665.82	148183.61	155569.78	169614.84	177853.49	187946.84	194363.44	198023.11	200843.13	206731.52	210434.90	220228.85	224646.72	227967.47	232053.48
QX11	8.4428	6.4942	20.7141	13.2919	10.7576	14.0880	14.5844	10.9856	5.2856	9.9210	7.8065	8.4122	13.4105	14.3160	10.0262	12.2810	18.9950	37.7193	10.7684	50.3797	11.3656	3.0395	6.7648	15.3692	16.3165	7.8416	7.1404	25.0998	16.0899	20.4959	17.3551	7.7356
QX12	0.0462	0.0662	0.0974	0.0110	0.0419	0.0936	0.0899	0.0262	0.1524	0.0965	0.0261	0.0744	0.0821	0.1375	0.0714	0.1225	0.0873	0.0993	0.0982	0.1106	0.0385	0.0853	0.0881	0.0859	0.0729	0.0739	0.0526	0.1042	0.0976	0.1059	0.1159	0.0573
0	124	63344.27	0.82	7.06	5	124	1	-1	20249,11843,07/17/2014,840014289	1	1	1
1	1396.10	23467.30	32163.32	42565.74	56094.80	63344.27
QX11	5.7278	18.4352	20.8416	11.4237	12.3535
QX12	0.0407	0.1005	0.0697	0.0897	0.1285
0	125	230881.38	0.69	12.29	37	125	1	-1	20249,11843,07/17/2014,840014289	1	1	1
1	7354.13	15460.35	28462.94	36096.60	41769.22	47320.53	57083.02	65649.81	69419.82	87155.41	94970.95	97850.61	100072.02	105996.89	112118.62	114373.22	117412.01	118588.99	123064.89	129726.38	131956.46	138650.90	149113.93	150968.92	153757.41	161340.29	167422.18	170162.06	181626.12	188167.03	192480.76	194453.18	197373.50	201183.84	204992.24	219403.74	222301.83	230881.38
QX11	8.1626	8.7842	11.0500	5.0016	23.2035	5.3985	5.7468	7.7661	8.1266	7.2128	10.0761	9.6160	16.2879	9.0220	10.6406	6.5150	5.3014	12.3678	14.3657	7.7043	8.7140	17.6810	15.4923	24.3646	26.1320	16.2787	13.3402	8.0681	17.1093	8.6446	46.3707	3.9833	10.6557	18.4313	11.1689	10.0378	18.5927
QX12	0.0694	0.0138	0.1419	0.0517	0.1063	0.0114	0.0468	0.0408	0.1184	0.0809	0.0853	0.0366	0.0661	0.0309	0.0015	0.0841	0.1208	0.0508	0.0599	0.1710	0.0906	0.0676	0.1048	0.0791	0.0903	0.0781	0.1051	0.0469	0.0358	0.1053	0.0404	0.0676	0.1027	0.1601	0.1170	0.0350	0.0316
0	126	190503.54	0.29	6.35	18	126	1	-1	20249,11843,07/17/2014,840014289	1	1	1
1	8363.35	21487.69	28608.09	41015.91	51803.62	55565.34	63997.57	84005.05	91184.60	106616.70	117907.58	132855.69	135048.22	137265.55	149888.10	158301.34	171040.45	188719.52	190503.54
QX11	9.6212	5.5969	12.8427	12.8447	6.1631	5.8153	18.2268	10.7522	17.0880	11.8792	11.6905	4.0007	10.3642	7.9960	11.2623	8.2716	17.3913	12.6343
QX12	0.0625	0.0476	0.0492	0.0989	0.1300	0.0684	0.1120	0.0802	0.1430	0.0934	0.1245	0.0701	0.0544	0.1255	0.0914	0.0654	0.1155	0.0989
0	127	157428.93	0.21	8.17	18	127	1	-1	20249,11843,07/17/2014,840014289	1	1	1
1	12178.93	18879.19	51920.75	53992.67	59084.50	62189.67	76356.50	83612.78	94604.18	98282.06	101014.76	109544.07	116670.61	118834.98	120486.44	125961.40	136687.73	152033.94	157428.93
QX11	43.7458	32.7150	8.3884	11.0866	16.3443	54.8844	13.2284	12.3745	8.1130	15.1259	20.6045	19.5388	10.9877	10.8086	43.8630	32.3101	20.5441	16.5970
QX12	0.0225	0.0786	0.1388	0.0350	0.0648	0.0763	0.0607	0.1012	0.1018	0.0850	0.0631	0.0185	0.1371	0.0242	0.0979	0.1170	0.0807	0.0195
0	128	64565.34	0.36	9.56	4	128	1	-1	20249,11843,07/17/2014,840014289	1	1	1
1	10512.82	14415.22	24046.81	28076.03	64565.34
QX11	11.0798	5.7597	4.6641	11.5608
QX12	0.1165	0.1002	0.0768	0.0827
0	129	77499.82	0.47	20.54	8	129	1	-1	20249,11843,07/17/2014,840014289	1	1	1
1	20104.75	24164.99	26870.25	34409.46	39931.53	53173.75	64019.38	76524.25	77499.82
QX11	4.7058	5.9425	9.3429	23.0851	11.7521	30.5221	6.3337	15.6438
QX12	0.0316	0.1620	0.0463	0.0943	0.0531	0.0907	0.0958	0.0499
0	130	127330.13	0.50	12.37	20	130	1	-1	20249,11843,07/17/2014,840014289	1	1	1
1	1296.45	7778.79	12038.70	19546.45	26871.67	38015.12	41544.43	43152.59	51914.54	59186.20	65842.02	70683.37	74681.66	93748.63	98126.07	100354.99	114976.92	118387.46	120339.71	126501.60	127330.13
QX11	16.6716	7.6772	6.0496	24.4927	4.3350	27.0826	14.1149	6.0881	12.9222	12.0951	10.6154	3.7471	14.3285	24.6590	3.4582	5.4251	10.2320	17.7911	25.8215	5.0001
QX12	0.0502	0.0317	0.0310	0.1040	0.0656	0.0768	0.0857	0.0638	0.1300	0.0608	0.0432	0.0210	0.0356	0.0366	0.0849	0.0385	0.0530	0.0931	0.0607	0.0655
0	131	54870.26	0.61	4.40	11	131	1	-1	20249,11843,07/17/2014,840014289	1	1	1
1	5594.62	7916.46	9592.66	12209.36	25314.41	31375.12	38213.96	40477.83	50207.22	52651.06	54704.43	54870.26
QX11	4.7375	4.5183	9.0174	9.3595	8.1286	8.2946	14.2748	9.8722	38.5422	8.8776	8.1850
QX12	0.1652	0.0347	0.0135	0.1052	0.1218	0.1528	0.0703	0.0906	0.0983	0.0660	0.0379
0	132	35114.45	0.59	8.41	1	132	1	-1	20249,11843,07/17/2014,840014289	1	1	1
1	261.06	35114.45
QX11	12.6405
QX12	0.0905
0	133	309912.04	0.58	5.67	37	133	1	-1	20249,11843,07/17/2014,840014289	1	1	1
1	37628.78	40720.76	46006.49	57755.93	72358.61	80202.44	82252.72	85400.36	91448.07	105484.27	107191.84	110587.92	118022.84	120019.82	133256.24	136105.06	150557.81	154653.21	158237.67	161735.64	163616.10	180728.55	192535.50	196900.72	199911.43	209058.63	220370.47	244955.37	256416.96	257910.83	262401.30	270156.47	280252.27	294487.78	298077.87	299766.56	309485.72	309912.04
QX11	13.1302	11.0010	31.7506	30.1530	10.0403	8.5741	17.2463	7.4414	5.8971	9.7652	13.9176	9.3326	17.8132	9.4720	42.5546	9.2622	6.7631	12.2301	11.0940	10.2739	10.7207	6.7107	9.0502	8.5172	8.5337	19.5160	15.2096	5.7961	15.1377	8.1634	7.2682	22.7738	10.3629	10.0936	5.5773	16.9183	6.2355
QX12	0.0889	0.0734	0.0340	0.0850	0.1102	0.0815	0.0658	0.1085	0.0674	0.0683	0.1005	0.0257	0.1277	0.1017	0.0634	0.0568	0.0958	0.1075	0.0604	0.0514	0.0508	0.0156	0.1022	0.0884	0.0735	0.1404	0.1266	0.0354	0.1238	0.0982	0.0822	0.1161	0.0547	0.0680	0.0099	0.1001	0.0766
0	134	30411.85	0.38	10.19	4	134	1	-1	20249,11843,07/17/2014,840014289	1	1	1
1	9075.28	14532.78	22036.37	27535.42	30411.85
QX11	8.6801	16.5573	15.4363	12.4611
QX12	0.0151	0.0490	0.0739	0.0822
0	135	195508.96	0.27	13.62	23	135	1	-1	20249,11843,07/17/2014,840014289	1	1	1
1	17318.29	19717.42	35394.43	36958.27	48104.14	55811.07	58931.56	60844.21	63406.77	65364.97	83575.02	87649.91	91909.02	125653.61	131347.60	143892.23	147785.65	160109.40	166858.58	168427.21	171417.48	176224.02	192919.94	195508.96
QX11	13.8702	23.4579	4.8345	5.5345	37.3122	10.4213	7.0276	8.4377	18.6309	25.9940	8.2041	10.1611	9.3193	6.2856	5.8501	11.2846	11.0077	7.7052	30.4773	9.2339	14.2990	7.8223	11.4416
QX12	0.1132	0.0462	0.1334	0.0281	0.0750	0.0092	0.0952	0.0458	0.0867	0.0762	0.1183	0.1059	0.0963	0.0887	0.1108	0.0655	0.0011	0.1078	0.0821	0.1006	0.0094	0.0826	0.0276
0	136	880274.62	0.52	39.79	102	136	1	-1	20249,11843,07/17/2014,840014289	1	1	1
1	1885.81	10004.99	23648.25	28635.74	34337.23	39523.90	44985.28	48274.02	56852.32	60117.42	73949.95	86257.87	89123.23	115929.40	124949.89	152669.19	155339.62	161989.06	172188.57	181621.03	189560.09	191356.40	193359.06	211082.60	216301.70	218545.21	231531.01	245575.05	248677.75	254778.64	273278.60	275326.75	277509.83	300935.25	312088.60	316250.43	318282.96	326881.80	338222.43	342459.54	351186.59	352694.12	355089.39	359783.05	362444.09	368078.05	374989.37	384352.28	388223.58	391412.18	415710.95	440999.80	444261.98	479241.41	491148.91	526067.59	529321.37	535574.11	539147.38	543607.97	545780.48	547688.13	558739.34	563759.41	567494.09	580492.03	589459.12	609257.44	629512.63	631670.50	635078.24	638154.99	653109.05	677079.65	684048.61	699462.96	703610.63	706598.65	714229.66	717125.11	719412.89	733413.07	744429.15	750299.66	752747.59	757224.51	775668.74	799766.49	801619.86	805925.54	817717.36	822738.31	825073.91	828062.46	835863.32	838946.18	847440.91	849530.83	853309.79	857600.02	871552.03	878196.21	880274.62
QX11	11.2353	4.9120	23.4644	21.3110	12.6101	38.9249	15.5813	7.5486	17.4192	5.1852	14.2559	13.2264	8.7074	13.8545	10.9596	13.0699	17.4113	7.7198	19.4841	19.6773	17.7711	16.1125	12.2246	19.5524	7.4140	10.3171	10.2992	17.8174	14.0052	10.9833	7.0736	11.3673	12.5776	19.7140	17.0704	14.0152	4.9370	5.7662	20.3336	8.1361	4.3077	16.3354	8.3290	11.0139	7.4035	6.0039	6.6734	17.1764	16.3164	18.2293	28.6806	9.1354	4.4601	6.4928	11.8384	7.4205	10.8941	30.2612	5.2940	16.5683	18.9785	24.1814	9.0637	28.5531	21.7343	80.4956	10.4211	5.1246	7.2941	15.4682	7.1744	15.8673	7.7756	15.1203	8.8829	25.0134	16.1123	17.6671	15.7961	7.0050	12.5169	9.4192	4.9651	9.7382	8.5450	10.7912	14.1761	8.5255	5.5802	7.6699	6.4249	14.3304	7.9545	7.1899	10.8311	16.4384	8.4218	19.3411	35.8300	8.9933	10.7019	30.9184
QX12	0.0668	0.1080	0.0365	0.0736	0.1105	0.0932	0.1260	0.1560	0.0197	0.0167	0.0479	0.0129	0.1350	0.0969	0.0245	0.1894	0.0367	0.0521	0.1095	0.1235	0.0895	0.0512	0.0702	0.0246	0.0890	0.0562	0.0903	0.0414	0.0864	0.1389	0.0768	0.0582	0.0522	0.0305	0.0565	0.1246	0.0681	0.0342	0.0429	0.0499	0.0547	0.0611	0.0392	0.0394	0.0585	0.0274	0.0610	0.0552	0.0528	0.0843	0.0419	0.0615	0.0407	0.0263	0.0549	0.1232	0.1283	0.0940	0.0600	0.0807	0.0874	0.0787	0.0709	0.0311	0.1099	0.0504	0.1175	0.0521	0.0451	0.0854	0.0688	0.0197	0.0152	0.0568	0.0831	0.1034	0.1673	0.0568	0.0504	0.0630	0.0845	0.0440	0.0401	0.0563	0.0964	0.0808	0.1040	0.1306	0.0271	0.1053	0.1129	0.0014	0.0287	0.0698	0.0716	0.1052	0.0980	0.0453	0.1049	0.0429	0.0469	0.1304
0	137	151589.05	0.09	8.71	14	137	1	-1	20249,11843,07/17/2014,840014289	1	1	1
1	1141.09	8491.59	13118.32	31203.26	52599.82	83544.82	91018.14	93015.13	96752.83	101739.67	103513.39	105381.97	113188.91	118617.13	151589.05
QX11	8.2312	13.3390	16.6972	6.6949	12.8161	12.4495	7.8176	10.4152	19.1202	11.3133	28.1672	11.0147	16.3875	17.8566
QX12	0.0067	0.0797	0.1372	0.0810	0.0227	0.0694	0.0930	0.0474	0.0419	0.1050	0.0717	0.0625	0.0922	0.0199
0	138	219468.64	0.56	6.42	18	138	1	-1	20249,11843,07/17/2014,840014289	1	1	1
1	24617.10	26817.59	32446.03	58072.89	81764.27	83433.51	86808.09	90548.87	106896.14	131680.96	157588.19	168169.09	169841.46	188303.05	200823.12	208099.81	214539.65	216681.90	219468.64
QX11	3.4866	8.9756	4.7306	14.7620	7.0676	10.9848	16.5394	17.5293	8.3153	12.0927	17.7974	13.4912	12.6016	25.2860	38.0726	8.9826	7.9714	32.1555
QX12	0.1017	0.0645	0.0797	0.0636	0.1016	0.0878	0.0350	0.0495	0.0584	0.0697	0.0428	0.0631	0.0811	0.0346	0.0760	0.0773	0.0953	0.0073
0	139	141026.19	0.24	10.17	12	139	1	-1	20249,11843,07/17/2014,840014289	1	1	1
1	7556.24	11148.97	16639.96	21459.60	29051.90	54360.37	56486.68	63634.60	94116.33	110722.04	122382.71	137766.16	141026.19
QX11	12.0059	10.9274	27.9851	14.9108	17.6050	13.0132	8.8749	15.5683	16.4255	16.2084	11.4503	20.2376
QX12	0.0511	0.1109	0.1496	0.0186	0.1119	0.1415	0.0988	0.0135	0.0672	0.0839	0.1082	0.1124
0	140	49503.72	0.51	9.10	3	140	1	-1	20249,11843,07/17/2014,840014289	1	1	1
1	697.99	34416.12	49395.80	49503.72
QX11	12.2077	12.4672	23.1437
QX12	0.0974	0.1030	0.0247
0	141	412659.01	0.16	6.71	47	141	1	-1	20249,11843,07/17/2014,840014289	1	1	1
1	4013.06	6803.93	13665.39	23391.87	27481.53	39389.60	46108.68	58200.18	61333.98	67941.73	91661.82	96145.93	101148.92	102612.45	107138.71	111698.03	116366.19	122898.35	135167.78	155184.63	156896.66	160680.38	164225.76	174012.50	205445.48	208154.02	213776.56	218994.49	234037.93	269237.56	272964.39	288284.30	293554.68	296928.56	298807.96	302102.58	314276.19	323397.47	336251.12	345491.66	358425.32	363140.49	371266.49	391800.92	395087.32	397859.89	402135.77	412659.01
QX11	10.6077	23.0086	5.7202	5.1263	8.4600	17.9333	12.7660	19.4495	19.8777	8.7199	4.0522	15.7413	4.2085	15.6557	11.7389	24.7342	17.7513	18.2023	13.9259	12.4654	12.2668	14.4387	4.1604	9.0267	10.9517	12.4565	14.3914	6.1175	23.2094	18.7797	15.5103	9.0265	13.1919	28.6590	18.1296	11.6000	10.3002	9.3007	8.5004	18.4631	12.4272	6.0347	20.2021	8.9385	20.7622	28.5965	27.0729
QX12	0.0284	0.0638	0.0945	0.0682	0.0494	0.0372	0.0958	0.0622	0.1295	0.1201	0.1331	0.0363	0.0923	0.1183	0.0188	0.1516	0.1243	0.0348	0.0961	0.0670	0.0835	0.0958	0.0344	0.0371	0.0804	0.0390	0.0492	0.0447	0.0528	0.1029	0.0622	0.0610	0.0567	0.1237	0.0081	0.0506	0.0347	0.0521	0.0633	0.0986	0.1072	0.0089	0.1110	0.0942	0.1445	0.0446	0.0453
0	142	238095.38	0.11	57.93	24	142	1	-1	20249,11843,07/17/2014,840014289	1	1	1
1	4814.80	8047.15	42184.46	53849.03	70959.47	88350.58	91254.89	97141.70	100856.81	105014.95	119457.87	129217.62	141205.63	164787.01	169396.31	172144.13	182025.27	189889.63	191885.26	194469.68	196512.08	211768.57	224096.73	235651.08	238095.38
QX11	4.8923	29.1147	4.7080	7.8185	8.8466	12.9475	10.1706	5.6051	20.0605	82.3831	6.6437	9.4292	10.3529	11.7636	11.3332	9.1374	10.4428	7.6224	14.5799	34.7788	12.0851	13.1613	15.2458	13.0068
QX12	0.0265	0.1022	0.0550	0.1252	0.1032	0.0786	0.1055	0.0181	0.0565	0.0263	0.0226	0.0869	0.1931	0.1414	0.0905	0.1389	0.0589	0.0306	0.0433	0.0413	0.1568	0.0084	0.0404	0.0593
0	143	345199.59	0.03	9.25	42	143	1	-1	20249,11843,07/17/2014,840014289	1	1	1
1	3376.78	17086.63	18770.11	25172.69	42004.13	53649.62	67723.54	73891.90	77097.81	80444.58	86252.29	89341.85	99706.77	103891.43	107325.09	117504.22	125966.22	131909.91	139796.30	142005.64	144046.57	146739.23	152287.07	161123.38	164635.59	167046.83	170737.98	173087.00	185830.22	192191.49	199179.85	201128.74	212934.32	216207.71	286171.46	290446.62	292412.74	295308.99	300937.69	306138.99	322373.94	326548.63	345199.59
QX11	7.8978	7.9271	10.5354	37.8699	8.7095	10.2088	12.8281	14.4366	22.7412	5.3990	4.0816	25.2271	15.7551	10.7987	9.5334	19.8858	10.7111	16.5501	13.4623	19.2371	12.6967	6.9819	8.0325	8.7435	6.0618	15.2019	8.5833	10.3197	14.5420	14.4309	6.5087	8.9374	15.0889	3.2449	15.7220	7.2322	23.7495	10.0611	15.5001	12.5231	13.6352	12.8247
QX12	0.1271	0.0996	0.0963	0.0167	0.1278	0.1303	0.0978	0.0877	0.0257	0.1087	0.0732	0.0169	0.1477	0.1305	0.1409	0.0432	0.1056	0.0805	0.0511	0.0451	0.0374	0.1341	0.0171	0.1542	0.1096	0.0014	0.0954	0.0704	0.0438	0.0536	0.0929	0.0006	0.1333	0.1315	0.0458	0.0721	0.1175	0.0886	0.0399	0.0472	0.0721	0.1068
0	144	197955.55	0.15	7.39	22	144	1	-1	20249,11843,07/17/2014,840014289	1	1	1
1	3875.38	18071.67	27314.67	46767.05	58420.48	61646.31	72181.27	82395.25	89022.10	95214.20	100660.32	107528.38	122453.20	147480.17	152463.36	155388.09	169043.38	174363.70	179905.73	183627.19	184965.95	189274.09	197955.55
QX11	8.6855	8.5523	16.0215	161.8162	7.4431	11.4014	7.8507	12.9997	14.1399	44.1371	6.1769	11.7209	24.9374	27.7559	7.8210	7.9800	12.3545	10.5179	9.7024	15.1047	5.5860	11.3704
QX12	0.1068	0.0826	0.0022	0.1017	0.1518	0.0009	0.0808	0.1061	0.0909	0.1675	0.1008	0.1102	0.0055	0.0395	0.0646	0.0158	0.0265	0.1206	0.0641	0.0404	0.0889	0.0958
0	145	69381.99	0.39	23.30	6	145	1	-1	20249,11843,07/17/2014,840014289	1	1	1
1	10908.12	25303.04	31481.23	50982.87	52698.93	64733.01	69381.99
QX11	8.9072	7.1917	9.8163	5.7828	32.0115	8.5479
QX12	0.0521	0.0345	0.0138	0.0849	0.0678	0.0584
0	146	308228.77	0.10	11.57	29	146	1	-1	20249,11843,07/17/2014,840014289	1	1	1
1	3946.24	7570.55	11375.20	21062.49	44967.08	48647.85	64821.63	74783.21	81745.40	103797.27	122103.55	124086.25	137947.16	151321.31	160387.27	162120.05	166256.84	171611.00	198901.70	202008.05	214510.74	221214.40	228134.56	240737.92	246871.35	258432.01	269468.69	271533.26	297434.86	308228.77
